"","subID","phase","ln_AF7","ln_AF3","ln_AF4","ln_AF8","ln_F7","ln_F5","ln_F3","ln_F4","ln_F6","ln_F8","Left","Right","FAS","pre_FAS","delta_FAS_rest"
"1","a01","b01",-0.298312029755,-0.456540994237677,-0.127240565345179,-1.04996040002123,-0.406265935172968,-0.399766305703875,-0.355782094332649,-0.296054953030933,-0.370343646217246,-0.796932378844964,-0.383333471840434,-0.52810638869191,-0.144772916851476,-0.295369225484914,0.150596308633438
"2","a01","b02",-0.353232200799509,-0.443286024981885,-0.0835927405494622,-0.976176200119703,-0.420279610852726,-0.410823504311712,-0.364022747957338,-0.229142605696156,-0.369151041151938,-0.719981512777505,-0.398328817780634,-0.475608820058953,-0.0772800022783188,-0.295369225484914,0.218089223206595
"3","a01","b03",-0.373232007729214,-0.471527961540941,-0.186810383776898,-1.0609708769748,-0.451001782306353,-0.437387554295615,-0.387711068807417,-0.262613756389013,-0.583116491787838,-0.919032606547567,-0.424172074935908,-0.602508823095224,-0.178336748159315,-0.295369225484914,0.117032477325598
"4","a01","b04",-0.436121149606265,-0.585546821868541,-0.226059897573915,-1.23796804407244,-0.584936851532475,-0.567067384869752,-0.51901457982368,-0.333619668287041,-0.739903068735692,-1.11150445281148,-0.538537357540143,-0.729811026296113,-0.19127366875597,-0.295369225484914,0.104095556728943
"5","a01","b05",-0.574032976683435,-0.532452320061531,-0.308139912586973,-1.26192660339709,-0.467252378880236,-0.449845022474478,-0.399768752498079,-0.362813235965182,-0.796392731587265,-1.00020194470486,-0.484670290119552,-0.745894885648275,-0.261224595528723,-0.295369225484914,0.0341446299561906
"6","a01","b06",-0.44897630724895,-0.469657869459764,-0.299200873641474,-1.17957102595572,-0.440560310688218,-0.436348426343384,-0.351994154447727,-0.338300920752063,-0.729617389445087,-0.97238181622871,-0.429507413637609,-0.703814405204611,-0.274306991567003,-0.295369225484914,0.0210622339179111
"7","a01","b07",-0.363798897719544,-0.393207085035795,-0.221438091798041,-0.996694588886869,-0.409236741202872,-0.398309123537219,-0.33866710527409,-0.349358094198377,-0.687324384851564,-0.847175778918351,-0.380643790553904,-0.620398187730641,-0.239754397176736,-0.295369225484914,0.0556148283081772
"8","a01","b08",-0.437531263896643,-0.52021814945243,-0.389812969924513,-1.27143523004201,-0.522717628446728,-0.503266851010733,-0.450098386409468,-0.37743195448743,-0.745455321635302,-1.02993858529041,-0.4867664558432,-0.762814812275934,-0.276048356432734,-0.295369225484914,0.0193208690521801
"9","a01","b09",-0.332018481925304,-0.316692213399488,-0.176248046192949,-1.08867842003559,-0.341363614916947,-0.331996868673048,-0.233351042555143,-0.243988837217049,-0.701696497315029,-1.01422252726958,-0.311084444293986,-0.644966865606041,-0.333882421312055,-0.295369225484914,-0.0385131958271412
"10","a01","b10",-0.524848761961367,-0.577443745691944,-0.412470204965835,-1.19624411937529,-0.486028437026353,-0.474884506924708,-0.425897856847309,-0.416960129384108,-0.701445620211687,-1.05429324910675,-0.497820661690336,-0.756282664608735,-0.258462002918399,-0.295369225484914,0.0369072225665144
"11","a01","b11",-0.445516816139756,-0.461353942332543,-0.316600825976925,-1.20805619837265,-0.573451261158141,-0.570199317912195,-0.471624765681533,-0.305089021403836,-0.644115682942087,-1.00577884707193,-0.504429220644834,-0.695928115153487,-0.191498894508653,-0.295369225484914,0.10387033097626
"12","a01","b12",-0.296419133689218,-0.436638901833877,-0.293013687236479,-1.0930847900377,-0.33883094340451,-0.325418398337608,-0.28343691297029,-0.239672960329902,-0.594605777603711,-0.887409774764274,-0.3361488580471,-0.621557397994413,-0.285408539947313,-0.295369225484914,0.00996068553760088
"13","a01","b13",-0.285664549304114,-0.457377726977462,-0.254000203833083,-1.05310530262842,-0.399000441649696,-0.37994794329977,-0.331817257410353,-0.310593687564761,-0.674481815676866,-0.866292260635579,-0.370761583728279,-0.631694654067743,-0.260933070339464,-0.295369225484914,0.0344361551454499
"14","a01","b14",-0.423504775364734,-0.443685741646981,-0.271893606226226,-1.09921976518262,-0.424785345620545,-0.411558762340647,-0.35783700859303,-0.267055566826093,-0.672801260012621,-0.967855187343754,-0.412274326713187,-0.655765077118263,-0.243490750405076,-0.295369225484914,0.0518784750798377
"15","a01","b15",-0.424986339739417,-0.372366908035732,-0.249729325211317,-1.09893245923219,-0.324855292994905,-0.30625540891022,-0.250237043534502,-0.129452412304315,-0.664486115868535,-0.881132703778526,-0.335740198642955,-0.604746603278977,-0.269006404636022,-0.295369225484914,0.0263628208488913
"16","a01","b16",-0.388436295828679,-0.414727571631504,-0.240559271131441,-1.18834070719389,-0.43499289345013,-0.424872525902616,-0.350713755152878,-0.255616638594031,-0.705272368198828,-0.897277409330146,-0.402748608393161,-0.657413278889667,-0.254664670496506,-0.295369225484914,0.040704554988408
"17","a01","b17",-0.367270265129004,-0.349745383848222,-0.198881463804472,-1.00860065308447,-0.331660539650724,-0.327362664535758,-0.275952272650541,-0.245059835887894,-0.600473136128982,-0.840548685429347,-0.33039822516285,-0.578712754867032,-0.248314529704182,-0.295369225484914,0.0470546957807314
"18","a01","b18",-0.370818341294707,-0.333597758448751,-0.245875958339545,-1.10284543917812,-0.40547256364474,-0.381595210186301,-0.294674751624088,-0.257695441305641,-0.707069182013569,-1.02533793721249,-0.357231725039717,-0.667764791609873,-0.310533066570156,-0.295369225484914,-0.0151638410852419
"19","a01","b19",-0.376488182468292,-0.428741808511763,-0.152050499167869,-1.04325448138049,-0.41698746143546,-0.405578307173688,-0.331469450993641,-0.195138621515807,-0.532102742593574,-0.91030271461884,-0.391853042116569,-0.566569811855317,-0.174716769738748,-0.295369225484914,0.120652455746166
"20","a01","b20",-0.384412633883666,-0.425890135165496,-0.216322134878795,-1.13338907407569,-0.470645554477717,-0.451264411073289,-0.406262878328733,-0.196144213990539,-0.580971966885188,-0.856092772146562,-0.42769512258578,-0.596584032395354,-0.168888909809573,-0.295369225484914,0.12648031567534
"21","a01","pretest",-0.387737342685321,-0.421275324849797,-0.268955996105502,-1.07576184316479,-0.434245224415288,-0.433681698151288,-0.371432644295578,-0.347030229641253,-0.716752239834109,-1.11671805307619,-0.409674446879454,-0.705043672364368,-0.295369225484914,-0.295369225484914,0
"22","a02","b01",0.040315626484756,-0.382706953601208,-0.831170270593677,-0.79792006848786,0.0336865217217265,-0.552127108993469,-0.557343571917008,-0.336154205398707,-0.40236979192702,-0.616562643281421,-0.28363509726104,-0.596835395937737,-0.313200298676697,0.0500881345061565,-0.363288433182853
"23","a02","b02",0.0696266700030783,-0.341119666223216,-0.791941683863509,-0.748525861799234,0.0672907385804356,-0.645711233007145,-0.640111452412755,-0.261690643516622,-0.298864823850384,-0.516353775084942,-0.298004988611921,-0.523475357622938,-0.225470369011018,0.0500881345061565,-0.275558503517174
"24","a02","b03",0.158617230248733,-0.279805459434787,-0.625535791598333,-0.59596444393312,0.160784196133979,-0.329512212082989,-0.335350148975274,-0.0313479278508468,-0.0881311480392241,-0.431379718028747,-0.125053278822068,-0.354471805890054,-0.229418527067986,0.0500881345061565,-0.279506661574143
"25","a02","b04",0.0365647771594255,-0.370580189188945,-0.814854142142833,-0.784182073746607,0.0280604827504825,-0.547003646451672,-0.550928770183311,-0.198541710812847,-0.340294296139839,-0.491037076509856,-0.280777469182804,-0.525781859870396,-0.245004390687593,0.0500881345061565,-0.295092525193749
"26","a02","b05",0.00704045174168547,-0.484551856404116,-0.826831923692732,-0.791862832761336,0.00422176608140466,-0.409131115265931,-0.414769641802076,-0.231244724781034,-0.294209248161884,-0.647280665367346,-0.259438079129807,-0.558285878952866,-0.29884779982306,0.0500881345061565,-0.348935934329216
"27","a02","b06",-0.0782905781314516,-0.444477666391834,-0.650440686372445,-0.622486609587119,-0.0870838919544695,-0.471918707383087,-0.483354217774755,-0.123767993876575,-0.157474001585387,-0.479087799103087,-0.313025012327119,-0.406651418104923,-0.0936264057778035,0.0500881345061565,-0.14371454028396
"28","a02","b07",-0.0133000174244872,-0.558020737301465,-0.90601037355709,-0.877073584442235,-0.0165774579275442,-0.500107869445669,-0.503682093521108,-0.15866313470608,-0.330519934340866,-0.495732780611543,-0.318337635124055,-0.553599961531563,-0.235262326407508,0.0500881345061565,-0.285350460913665
"29","a02","b08",0.169887232420748,-0.452432181885957,-0.698706225558288,-0.670635639276337,0.166174530754024,-0.483057786408838,-0.494657284182877,-0.120211845779128,-0.160244009631963,-0.337621822259977,-0.21881709786058,-0.397483908501139,-0.178666810640558,0.0500881345061565,-0.228754945146715
"30","a02","b09",0.140533672420931,-0.40675681577404,-0.841902138217025,-0.809070967174469,0.144244297223301,-0.38729199099689,-0.390756770529637,-0.264824433768131,-0.340302332584096,-0.51007111595018,-0.180005521531267,-0.55323419753878,-0.373228676007513,0.0500881345061565,-0.423316810513669
"31","a02","b10",0.088712392321353,-0.453829489423961,-0.675457706500947,-0.63978712228341,0.0863900485527491,-0.510032239845583,-0.52104650454803,-0.189168096539287,-0.175857937019252,-0.407873501411057,-0.261961158588694,-0.417628872750791,-0.155667714162096,0.0500881345061565,-0.205755848668253
"32","a02","b11",-0.15953345826338,-0.626408527244262,-0.814918590175581,-0.792504717353268,-0.163186464577837,-0.6262819371223,-0.638559344049344,-0.401467760718259,-0.230903274289504,-0.579262056242379,-0.442793946251424,-0.563811279755798,-0.121017333504374,0.0500881345061565,-0.17110546801053
"33","a02","b12",-0.023129771578037,-0.469569214641058,-0.72350025238314,-0.697138458973781,-0.023440534341104,-0.568214669066362,-0.588872028050039,-0.201922396080704,-0.121281575859984,-0.475950253493489,-0.33464524353532,-0.443958587358219,-0.109313343822899,0.0500881345061565,-0.159401478329056
"34","a02","b13",0.132904203554413,-0.354035383531465,-0.711709118849635,-0.677146820819214,0.133027325582379,-0.491842770353357,-0.496142112686537,-0.189381829806429,-0.298300849178966,-0.518038016827297,-0.215217747486913,-0.478915327096308,-0.263697579609395,0.0500881345061565,-0.313785714115551
"35","a02","b14",-0.0183076977155427,-0.50741317505776,-0.820030135271726,-0.791478627148751,-0.0231373596891439,-0.49502164239757,-0.500858344602119,-0.170162040089212,-0.299608581185713,-0.508365550636312,-0.308947643892427,-0.517928986866343,-0.208981342973916,0.0500881345061565,-0.259069477480072
"36","a02","b15",-0.0808097247585308,-0.437831937291539,-0.814229877998247,-0.790996787442274,-0.0829666403915066,-0.48429906851791,-0.482389658168699,-0.229389323366533,-0.278070779372479,-0.419356400198988,-0.313659405825637,-0.506408633675704,-0.192749227850067,0.0500881345061565,-0.242837362356224
"37","a02","b16",-0.0969174252378689,-0.330054272699157,-0.684944764021198,-0.663458098114017,-0.0970327697458627,-0.466693290889344,-0.472146336700972,-0.126320689775991,-0.221752226892143,-0.498216373513661,-0.292568819054641,-0.438938430463402,-0.146369611408761,0.0500881345061565,-0.196457745914918
"38","a02","b17",-0.145157139866598,-0.363692040400745,-0.726589814589134,-0.701362490343717,-0.148669626456965,-0.511475505349258,-0.511879186690175,-0.125952463902752,-0.253163836184226,-0.397834506454497,-0.336174699752748,-0.440980622294865,-0.104805922542117,0.0500881345061565,-0.154894057048274
"39","a02","b18",-0.256952380275819,-0.394225571600921,-0.727661776747874,-0.697738603072901,-0.250496594592073,-0.518219564022626,-0.521305104881507,-0.249945485039954,-0.289397146073667,-0.539747610003961,-0.388239843074589,-0.500898124187671,-0.112658281113082,0.0500881345061565,-0.162746415619239
"40","a02","b19",-0.104279879863471,-0.27039756966438,-0.697204017300861,-0.676561640504996,-0.107977152853891,-0.503081586795379,-0.509901844210571,-0.137435926935616,-0.163535963351348,-0.419877351641797,-0.299127606677539,-0.418922979946924,-0.119795373269385,0.0500881345061565,-0.169883507775541
"41","a02","b20",-0.138840191633127,-0.279873485996376,-0.629389290937648,-0.601184592873425,-0.145603122225976,-0.520492402718375,-0.528504485449773,-0.107865839844398,-0.281231875847894,-0.490746870088491,-0.322662737604725,-0.422083693918371,-0.0994209563136458,0.0500881345061565,-0.149509090819802
"42","a02","pretest",-0.492318485511859,-0.573878929663944,-0.560971890662024,-0.548678403504907,-0.494310364254452,-0.263224923369102,-0.266388549501149,-0.0258589735348246,-0.24985310517233,-0.454318206895638,-0.418024250460101,-0.367936115953945,0.0500881345061565,0.0500881345061565,0
"43","a03","b01",-0.480795817816622,-0.478567664191821,-0.426138203182508,-0.919207430601444,-0.494606969364565,-0.488696235993623,-0.500296525700115,-0.471934677158435,-0.473878871351601,-0.890607887800671,-0.488592642613349,-0.636353414018932,-0.147760771405583,-0.147610093105041,-0.000150678300541551
"44","a03","b02",-0.557343132980467,-0.553632279518239,-0.480079327066079,-0.885752391804319,-0.566211651502793,-0.562032405616411,-0.563834562697465,-0.453030188607265,-0.459695108187064,-0.851940897998242,-0.560610806463075,-0.626099582732594,-0.065488776269519,-0.147610093105041,0.082121316835522
"45","a03","b03",-0.519406690737833,-0.508576970258994,-0.331008824756995,-0.843488952276373,-0.531742639139383,-0.530274285099674,-0.522558840106959,-0.382934781305497,-0.385434055019005,-0.804865948917313,-0.522511885068569,-0.549546512455036,-0.0270346273864678,-0.147610093105041,0.120575465718573
"46","a03","b04",-0.352654363767541,-0.364193724662608,-0.483497531318677,-0.90672427386806,-0.369782283611088,-0.360781691455528,-0.369071859779136,-0.454043454125226,-0.452623966506843,-0.869209529990942,-0.36329678465518,-0.63321975116195,-0.26992296650677,-0.147610093105041,-0.122312873401729
"47","a03","b05",-0.518285139000337,-0.518765099158286,-0.463843616750957,-0.774650034859507,-0.530162459366705,-0.519122817051479,-0.525099438869954,-0.434293813455252,-0.425489903022145,-0.743343823521391,-0.522286990689352,-0.56832423832185,-0.0460372476324979,-0.147610093105041,0.101572845472543
"48","a03","b06",-0.579523469873592,-0.577319155727446,-0.536621939332916,-0.906642038230218,-0.595904711488307,-0.580484358459674,-0.588253002246534,-0.491290867362563,-0.493137750993753,-0.874914506064096,-0.584296939559111,-0.660521420396709,-0.0762244808375987,-0.147610093105041,0.0713856122674423
"49","a03","b07",-0.485723467875839,-0.488416304977811,-0.515355259541317,-0.968081800481145,-0.500041957851371,-0.492117094070955,-0.495710321950243,-0.491835868890591,-0.487050637242259,-0.939408540348324,-0.492401829345244,-0.680346421300727,-0.187944591955483,-0.147610093105041,-0.0403344988504423
"50","a03","b08",-0.477049003189441,-0.478229431703059,-0.443629199758324,-0.969354142471912,-0.493096426331987,-0.479512203834996,-0.485032599288433,-0.416438555914165,-0.420488060662779,-0.936015461247528,-0.482583932869583,-0.637185084010942,-0.154601151141359,-0.147610093105041,-0.00699105803631767
"51","a03","b09",-0.46538223108368,-0.469563665027006,-0.337127011429538,-0.876767263112541,-0.480428903235135,-0.464654218998848,-0.471340007153202,-0.333647385073606,-0.330858470786544,-0.853300281627194,-0.470273805099574,-0.546340082405885,-0.0760662773063103,-0.147610093105041,0.0715438157987306
"52","a03","b10",-0.293919628207554,-0.299396277140927,-0.250561277723036,-0.786047789917913,-0.299539457287176,-0.297150537450152,-0.296630825672261,-0.284999547296158,-0.282787667422111,-0.758190635706041,-0.297327345151614,-0.472517383613052,-0.175190038461438,-0.147610093105041,-0.0275799453563967
"53","a03","b11",-0.434396236598659,-0.444162704856712,-0.45603572440079,-0.879875929777074,-0.456754610086763,-0.442363619075164,-0.447377479349276,-0.394618385686209,-0.386178419943989,-0.848712807983169,-0.445010929993315,-0.593084253558246,-0.148073323564932,-0.147610093105041,-0.000463230459890662
"54","a03","b12",-0.56592668974396,-0.569090861806019,-0.450223164306661,-0.891418356115926,-0.579409926161189,-0.562267086929087,-0.575222434411186,-0.440789186000967,-0.443716454742997,-0.865638039191569,-0.570383399810288,-0.618357040071624,-0.0479736402613357,-0.147610093105041,0.0996364528437053
"55","a03","b13",-0.446892363152527,-0.455332321142591,-0.407554829689917,-0.859082620642913,-0.463719643294369,-0.448876396167842,-0.448124862219331,-0.422871414916796,-0.427860274111153,-0.823627078128333,-0.452589117195332,-0.588199243497822,-0.13561012630249,-0.147610093105041,0.0119999668025506
"56","a03","b14",-0.598563805443436,-0.608583985457397,-0.47240591060267,-0.861590122993685,-0.611864854700153,-0.601688108004215,-0.61011602669452,-0.439920723313814,-0.442940946418816,-0.813006903146733,-0.606163356059944,-0.605972921295143,0.000190434764800962,-0.147610093105041,0.147800527869842
"57","a03","b15",-0.282149412650104,-0.299868332644915,-0.362041019959012,-0.771401718241794,-0.297716619228572,-0.285663159408251,-0.286161260899329,-0.278296863108743,-0.287808509647254,-0.735955619256166,-0.290311756966234,-0.487100746042594,-0.19678898907636,-0.147610093105041,-0.0491788959713186
"58","a03","b16",-0.66975384117497,-0.699108839688939,-0.673991436980725,-0.881577197539581,-0.687864748924325,-0.69161710655568,-0.685037575885061,-0.705691678816827,-0.687656280229654,-0.836934715963373,-0.686676422445795,-0.757170261906032,-0.0704938394602372,-0.147610093105041,0.0771162536448037
"59","a03","b17",-0.46038824141951,-0.467331599908388,-0.387485030480616,-0.76887714638314,-0.475022441812069,-0.44910349019399,-0.455558218330421,-0.297576103779395,-0.290606335488641,-0.735031662670178,-0.461480798332876,-0.495915255760394,-0.0344344574275183,-0.147610093105041,0.113175635677523
"60","a03","b18",-0.408996457307192,-0.416669341348866,-0.318310157340135,-0.620254786127954,-0.421423111588287,-0.407182788097569,-0.413380536245943,-0.149715007522648,-0.152916600768751,-0.583862098284824,-0.413530446917571,-0.365011730008863,0.0485187169087086,-0.147610093105041,0.19612881001375
"61","a03","b19",-0.438534665931771,-0.449092635584944,-0.397645695652358,-0.758383651603709,-0.453858681161168,-0.434745009893071,-0.448635588352789,-0.277575124818989,-0.287472898485287,-0.720731513191206,-0.444973316184749,-0.48836177675031,-0.043388460565561,-0.147610093105041,0.10422163253948
"62","a03","b20",-0.381415597532116,-0.408801669940716,-0.475501411043739,-0.899129706112243,-0.396499543529326,-0.387217797527374,-0.398008065337355,-0.483288503297233,-0.487444783964182,-0.8620099894402,-0.394388534773377,-0.641474878771519,-0.247086343998142,-0.147610093105041,-0.0994762508931009
"63","a03","pretest",-0.126820637667875,-0.106952876315116,-0.0541511826132252,-0.537353740548054,-0.128479504363833,-0.121326230794867,-0.124353383962376,-0.109202878071387,-0.105408051011861,-0.539867246384745,-0.121586526620813,-0.269196619725854,-0.147610093105041,-0.147610093105041,0
"64","a04","b01",-0.171943319361093,-0.384385360575862,-0.918047007168994,-1.20248275783731,-0.878893595446479,-0.912779116832479,-0.304749025973527,-1.20460009194465,-1.20369091429816,-1.20139772046741,-0.530550083637888,-1.1460436983433,-0.615493614705415,-0.518415938646043,-0.0970776760593715
"65","a04","b02",-0.442776718855022,-0.633433918523352,-1.14024176602035,-1.53000541068205,-1.08924472282205,-1.15361765763845,-0.518613586954004,-1.5025221296714,-1.52243161644957,-1.52545506164515,-0.767537320958575,-1.44413119689371,-0.67659387593513,-0.518415938646043,-0.158177937289087
"66","a04","b03",-0.416804121676641,-0.621747417390391,-1.11065438638062,-1.53826258188672,-1.06661375841266,-1.12807979530257,-0.445032765443721,-1.49992919868647,-1.52627758737062,-1.52044200940223,-0.735655571645198,-1.43911315274533,-0.703457581100134,-0.518415938646043,-0.185041642454091
"67","a04","b04",-0.633949337623016,-0.81339715588939,-1.24204337192518,-1.66305408919637,-1.28740457423863,-1.34564029940667,-0.559424231621088,-1.6104625845348,-1.63125050618101,-1.60730670636024,-0.92796311975576,-1.55082345163952,-0.622860331883761,-0.518415938646043,-0.104444393237718
"68","a04","b05",-0.50727770912191,-0.702095537990592,-1.12030417908664,-1.51460177959388,-1.19280154975382,-1.24490416073711,-0.56722951216105,-1.45943117513873,-1.4768128699618,-1.46638107898435,-0.842861693952898,-1.40750621655308,-0.564644522600183,-0.518415938646043,-0.0462285839541394
"69","a04","b06",-0.722933865344993,-0.913837096620366,-1.26892143527027,-1.63156251319224,-1.28161934521372,-1.35276271956458,-0.66420884319249,-1.59061266248698,-1.60618134776289,-1.59157108512967,-0.98707237398723,-1.53776980876841,-0.550697434781182,-0.518415938646043,-0.0322814961351391
"70","a04","b07",-0.653799369628534,-0.82395619197975,-1.18797039168689,-1.56067164246491,-1.18362764066519,-1.24555623923564,-0.55740125971834,-1.5152862237105,-1.5319100884873,-1.53815060123147,-0.892868140245491,-1.46679778951621,-0.573929649270723,-0.518415938646043,-0.0555137106246794
"71","a04","b08",-0.719708593406158,-0.876421209731517,-1.21808238533258,-1.63354205393269,-1.19993147535252,-1.25929664238667,-0.559491015553307,-1.60299961230584,-1.6131824994867,-1.61132366032055,-0.922969787286035,-1.53582604227567,-0.612856254989637,-0.518415938646043,-0.0944403163435933
"72","a04","b09",-0.761583824850484,-0.918086739350887,-1.26706833811466,-1.63650449623655,-1.21722395899711,-1.28360198295773,-0.633400134304561,-1.59406495708196,-1.60665160797613,-1.61583688321966,-0.962779328092155,-1.54402525652579,-0.581245928433638,-0.518415938646043,-0.0628299897875947
"73","a04","b10",-0.752840548169781,-0.885107400749706,-1.22956800090562,-1.53624364907543,-1.10349184937225,-1.16519293358524,-0.541612967052211,-1.49049257966284,-1.50801082844006,-1.50360759648264,-0.889649139785839,-1.45358453091332,-0.563935391127478,-0.518415938646043,-0.0455194524814351
"74","a04","b11",-0.777218089677265,-0.917766585906463,-1.29873184036104,-1.65837991973678,-1.21464248449867,-1.27332723886334,-0.642990520809305,-1.63275396867729,-1.64089040520168,-1.63219825534929,-0.96518898395101,-1.57259087786522,-0.607401893914207,-0.518415938646043,-0.088985955268164
"75","a04","b12",-0.853973352519914,-1.00556227913661,-1.35898833818776,-1.67794345397242,-1.30049103267155,-1.35316038385017,-0.673231907845027,-1.62120390022585,-1.64152855365263,-1.63422998042742,-1.03728379120466,-1.58677884529321,-0.549495054088559,-0.518415938646043,-0.0310791154425155
"76","a04","b13",-0.869259404539297,-1.0185957876181,-1.3563367767905,-1.67305298818858,-1.40281430390281,-1.46159906494745,-0.777407347104044,-1.63476920968884,-1.6460745838135,-1.64200748994969,-1.10593518162234,-1.59044820968622,-0.484513028063879,-0.518415938646043,0.0339029105821639
"77","a04","b14",-0.794507189466134,-0.951844077285513,-1.36280441975731,-1.71545238243815,-1.33586468119525,-1.39167343350198,-0.689743913065959,-1.65769196057924,-1.66496377730724,-1.65259667301957,-1.03272665890297,-1.6107018426203,-0.577975183717333,-0.518415938646043,-0.0595592450712902
"78","a04","b15",-0.648506430794252,-0.803850894242972,-1.19632834210592,-1.46441095463196,-1.12751495027642,-1.18797621664084,-0.531426724418327,-1.41272552732611,-1.4272204752443,-1.42872204755656,-0.859855043274561,-1.38588146937297,-0.526026426098409,-0.518415938646043,-0.00761048745236559
"79","a04","b16",-0.651431462354978,-0.806879194096293,-1.27052582254787,-1.61409649320623,-1.27067035819334,-1.33436916632761,-0.6336361819953,-1.55701667557675,-1.56992170858782,-1.55784457570278,-0.939397272593504,-1.51388105512429,-0.574483782530788,-0.518415938646043,-0.0560678438847443
"80","a04","b17",-0.771690797536598,-0.911518844229712,-1.36269018663252,-1.60670469070294,-1.22161878475323,-1.2834471828883,-0.632306527535014,-1.53850876179769,-1.56303988273133,-1.56359183018923,-0.964116427388572,-1.52690707041074,-0.56279064302217,-0.518415938646043,-0.0443747043761268
"81","a04","b18",-0.602622494613912,-0.778031658036459,-1.23007667567742,-1.59829702537649,-1.15732591393495,-1.21576153862145,-0.498364106170536,-1.55598677546382,-1.56325920663157,-1.55654335932311,-0.850421142275463,-1.50083260849448,-0.650411466219019,-0.518415938646043,-0.131995527572976
"82","a04","b19",-0.780466551336961,-0.935132956033044,-1.31539789600383,-1.70221825867441,-1.25599780964726,-1.3132006206841,-0.686712387336535,-1.63207944723143,-1.64597128763229,-1.64372781502231,-0.994302065007579,-1.58787894091285,-0.593576875905276,-0.518415938646043,-0.0751609372592327
"83","a04","b20",-0.579226935536557,-0.736097185076896,-1.13543599143931,-1.57029523036217,-1.03617931404776,-1.08221329238629,-0.402893882353251,-1.50679402831988,-1.52471835464887,-1.5305368990052,-0.76732212188015,-1.45355610075509,-0.686233978874937,-0.518415938646043,-0.167818040228893
"84","a04","pretest",0.373386295562284,0.09473499585017,-0.496064666020199,-0.444920275568018,-0.248718095776366,-0.278510878452103,0.0321252848498246,-0.57659674081963,-0.593254396015826,-0.508226012772734,-0.00539647959323791,-0.523812418239281,-0.518415938646043,-0.518415938646043,0
"85","a05","b01",-0.644119372506496,-0.606501644197326,-0.927106604452115,-1.06638959709203,-0.651939742179844,-0.654992907321052,-0.670186463915693,-1.07946737978445,-1.06841636676394,-1.14027816390446,-0.645548026024082,-1.0563316223994,-0.410783596375317,-0.349230849448145,-0.0615527469271722
"86","a05","b02",-0.6565068656497,-0.621558442020968,-0.930463500109452,-1.07515573026202,-0.660496958555258,-0.659345258498049,-0.665871301904682,-1.09549081911094,-1.08824067694461,-1.15283685575898,-0.652755765325731,-1.0684375164372,-0.415681751111468,-0.349230849448145,-0.0664509016633231
"87","a05","b03",-0.665811991378414,-0.634371865138179,-0.945240479643979,-1.09265429934988,-0.670801353354662,-0.671396090677957,-0.683880483987697,-1.085758604691,-1.07465832312669,-1.16766322769037,-0.665252356907382,-1.07319498690038,-0.407942629993001,-0.349230849448145,-0.0587117805448562
"88","a05","b04",-0.63109800072156,-0.594568742937851,-0.85183421748585,-1.01654945655424,-0.645852338729268,-0.642350510199607,-0.650871871847162,-1.0317842777022,-1.03071084931346,-1.11717485550812,-0.632948292887089,-1.00961073131277,-0.376662438425686,-0.349230849448145,-0.0274315889775405
"89","a05","b05",-0.772948500199004,-0.737870194223461,-1.00206177490305,-1.162090636431,-0.779941794278432,-0.777885325215514,-0.783267428448964,-1.15909684512436,-1.15655668664169,-1.2234856219022,-0.770382648473075,-1.14065831300046,-0.370275664527383,-0.349230849448145,-0.0210448150792382
"90","a05","b06",-0.652349253005366,-0.611478285031658,-0.955836016113763,-1.12080883451693,-0.660274435303008,-0.663939719350671,-0.673666459140851,-1.12953470633046,-1.12808353111986,-1.19659460424376,-0.652341630366311,-1.10617153846496,-0.453829908098645,-0.349230849448145,-0.1045990586505
"91","a05","b07",-0.673308924414684,-0.62802450061137,-0.915659065258022,-1.08342167273706,-0.691071589285624,-0.689204362632959,-0.700822527684608,-1.07613274417777,-1.07042437022602,-1.15586313341461,-0.676486380925849,-1.0603001971627,-0.383813816236848,-0.349230849448145,-0.0345829667887031
"92","a05","b08",-0.44431990644665,-0.383532153673929,-0.774457219360567,-0.929605370569632,-0.444692508014356,-0.459519047190787,-0.46097922733533,-0.923464692762247,-0.928227950759016,-1.01403123043117,-0.438608568532211,-0.913957292776526,-0.475348724244315,-0.349230849448145,-0.12611787479617
"93","a05","b09",-0.547435741883538,-0.490579794425439,-0.900883188620673,-1.05604000090641,-0.560444738100884,-0.562715775433713,-0.56266155944365,-1.07373924985287,-1.0467863329614,-1.12827843974116,-0.544767521857445,-1.0411454424165,-0.496377920559058,-0.349230849448145,-0.147147071110913
"94","a05","b10",-0.636457010754129,-0.587928752033699,-0.91051882910063,-1.06246525463204,-0.656420134522325,-0.649430259576221,-0.649882350377608,-1.0561772574919,-1.03870173185558,-1.09874102694069,-0.636023701452796,-1.03332082000417,-0.397297118551372,-0.349230849448145,-0.0480662691032273
"95","a05","b11",-0.569239521664605,-0.525129911348738,-0.791473027835025,-0.946385578403997,-0.576950570639321,-0.580342700687398,-0.587982605299388,-0.979925730479305,-0.97669915587137,-1.0347601720021,-0.56792906192789,-0.945848732918359,-0.377919670990469,-0.349230849448145,-0.0286888215423242
"96","a05","b12",-0.685852068007958,-0.635820607480418,-0.923908575299897,-1.09022697449767,-0.684831788655617,-0.680198343661284,-0.693054723254233,-1.08124344740799,-1.07816181790206,-1.15472870972507,-0.675951506211902,-1.06565390496654,-0.389702398754636,-0.349230849448145,-0.0404715493064909
"97","a05","b13",-0.512264011360638,-0.44285026984434,-0.887566929403796,-1.06588097064996,-0.525218694144708,-0.522744314545071,-0.538420800804119,-1.0435286088808,-1.04418009928138,-1.13213300260203,-0.508299618139775,-1.03465792216359,-0.526358304023815,-0.349230849448145,-0.17712745457567
"98","a05","b14",-0.542624370002113,-0.473406962326519,-0.885773057588184,-1.06117595189426,-0.53563267210973,-0.532623523333171,-0.54840339846807,-1.05843599049128,-1.05857804762246,-1.1438144872177,-0.526538185247921,-1.04155550696278,-0.515017321714858,-0.349230849448145,-0.165786472266713
"99","a05","b15",-0.42197436505649,-0.358649220794561,-0.757333924209669,-0.926097774190724,-0.435528979766673,-0.435967048938917,-0.449396281617902,-0.869970207569466,-0.865979874844701,-0.988528139892539,-0.420303179234909,-0.88158198414142,-0.461278804906511,-0.349230849448145,-0.112047955458366
"100","a05","b16",-0.391000183877778,-0.299090927890344,-0.759227321249692,-0.944458078351035,-0.40672427116852,-0.411828320049542,-0.4192861183088,-0.947749727693947,-0.948526681313136,-1.03372843708599,-0.385585964258997,-0.926738049138759,-0.541152084879762,-0.349230849448145,-0.191921235431617
"101","a05","b17",-0.430755128532914,-0.378334187981432,-0.577304147444562,-0.803447213698976,-0.436488873166416,-0.422425522027455,-0.449962891246769,-0.772496697051873,-0.786618807655219,-0.859324927482089,-0.423593320590997,-0.759838358666544,-0.336245038075547,-0.349230849448145,0.0129858113725986
"102","a05","b18",-0.255366530960386,-0.16804877880258,-0.637597736692945,-0.84090822232716,-0.271642965388976,-0.268797390297423,-0.278154403654864,-0.800380588614569,-0.793290794460548,-0.903137468360737,-0.248402013820846,-0.795062962091192,-0.546660948270346,-0.349230849448145,-0.197430098822201
"103","a05","b19",-0.384603903733808,-0.326242945811515,-0.585071421629395,-0.797006352974958,-0.386556948306528,-0.386160099150275,-0.399983275919077,-0.760579982488932,-0.750860341248619,-0.842677515653673,-0.37670943458424,-0.747239122799115,-0.370529688214875,-0.349230849448145,-0.0212988387667295
"104","a05","b20",-0.520251874632964,-0.465664645384199,-0.737516518940347,-0.953028733195764,-0.528297755764954,-0.527463186695857,-0.540384661740328,-0.927728858632179,-0.918070880577232,-1.02247067917769,-0.51641242484366,-0.911763134104643,-0.395350709260982,-0.349230849448145,-0.0461198598128372
"105","a05","pretest",-0.716887417476429,-0.689406131964913,-0.972137750636782,-1.09144903001145,-0.722026984164307,-0.712356860542195,-0.729019723968085,-1.05045157688118,-1.036575630683,-1.16523737714424,-0.713939423623186,-1.06317027307133,-0.349230849448145,-0.349230849448145,0
"106","a06","b01",-0.156262089104618,0.0345667938202045,-0.581759022384921,-0.519348657894465,0.0352307165678805,0.0346055683887454,0.0375945476052451,-0.552799183996462,-0.543557859239068,-0.520989235879229,-0.00285289254450841,-0.543690791878829,-0.540837899334321,-0.346808077961079,-0.194029821373242
"107","a06","b02",-0.197644457179018,-0.213938411459755,-0.712512181189233,-0.64596243919211,-0.215966834003853,-0.212924265193772,-0.205946003273865,-0.690359323969844,-0.671962713667243,-0.640801634040943,-0.209283994222053,-0.672319658411875,-0.463035664189822,-0.346808077961079,-0.116227586228743
"108","a06","b03",-0.196236435267041,-0.103658495613609,-0.505376384463366,-0.435105796550385,-0.108803167462884,-0.109158146703796,-0.0916992904516079,-0.471734715967152,-0.463040081146492,-0.441407736764514,-0.121911107099788,-0.463332942978382,-0.341421835878594,-0.346808077961079,0.00538624208248467
"109","a06","b04",-0.0788025995732437,-0.105579191906871,-0.553980972273025,-0.484168591649168,-0.104873160761561,-0.102151758261819,-0.0932935170740651,-0.520522329545812,-0.521814950362802,-0.49395998835898,-0.0969400455155118,-0.514889366437957,-0.417949320922446,-0.346808077961079,-0.0711412429613664
"110","a06","b05",-0.192983795191156,-0.123290662932049,-0.573868274903051,-0.505085724798933,-0.128927100151633,-0.126760103913765,-0.124277190609347,-0.542002948097565,-0.536209228957326,-0.513339802433357,-0.13924777055959,-0.534101195838046,-0.394853425278456,-0.346808077961079,-0.0480453473173771
"111","a06","b06",-0.138797327119797,-0.220340626599669,-0.568420607495951,-0.497629313835936,-0.220006860374917,-0.221709908623878,-0.216602708042272,-0.543339151502396,-0.534196048547982,-0.504341465097671,-0.203491486152106,-0.529585317295987,-0.326093831143881,-0.346808077961079,0.0207142468171985
"112","a06","b07",-0.354183730750974,-0.277783725354362,-0.671242713838392,-0.589482003589854,-0.27500136691108,-0.278092680899777,-0.272592402042911,-0.649329886784435,-0.632977675958273,-0.59928329349502,-0.291530781191821,-0.628463114733195,-0.336932333541374,-0.346808077961079,0.00987574441970512
"113","a06","b08",-0.287716707225507,-0.196639242255891,-0.599432819820035,-0.521234115427565,-0.195669359806438,-0.204214966604897,-0.193313708932429,-0.561267241601493,-0.551057692165216,-0.52443561011282,-0.215510796965033,-0.551485495825426,-0.335974698860393,-0.346808077961079,0.0108333791006858
"114","a06","b09",-0.201191877979362,-0.130973352761034,-0.6604171511587,-0.594911746006759,-0.128800922718768,-0.131002331297657,-0.124340408838135,-0.63746153485509,-0.626829246986676,-0.602269174439516,-0.143261778718991,-0.624377770689348,-0.481115991970357,-0.346808077961079,-0.134307914009277
"115","a06","b10",-0.195643362129046,-0.168066809045438,-0.539656609010332,-0.465493176375015,-0.172107861033187,-0.173097654119452,-0.159427003330512,-0.51095864143076,-0.502675558204851,-0.473954405284029,-0.173668537931527,-0.498547678060997,-0.32487914012947,-0.346808077961079,0.021928937831609
"116","a06","b11",-0.118637187246384,-0.0348409946197974,-0.45369122127604,-0.38751365768953,-0.0352550339984422,-0.0459762541411394,-0.0290722182202941,-0.434723348779531,-0.424996675564318,-0.398648594447294,-0.0527563376452114,-0.419914699551343,-0.367158361906131,-0.346808077961079,-0.0203502839450523
"117","a06","b12",-0.202969730966414,-0.221766765554324,-0.620527348095314,-0.540805314161414,-0.229898779519918,-0.230671476998628,-0.21440388568824,-0.590057500187012,-0.581848998696516,-0.545380353485883,-0.219942127745505,-0.575723902925228,-0.355781775179723,-0.346808077961079,-0.00897369721864355
"118","a06","b13",-0.21405998763583,-0.097611668014948,-0.604441122375326,-0.525315838507122,-0.111259528420104,-0.10917166883477,-0.0966193590074806,-0.578026412406229,-0.563440180434982,-0.529078483785692,-0.125744442382626,-0.56006040750187,-0.434315965119244,-0.346808077961079,-0.0875078871581647
"119","a06","b14",-0.329888559849243,-0.178400250484881,-0.65633647758649,-0.579376912590023,-0.197707518553059,-0.19598996251189,-0.178402418393922,-0.630085812048392,-0.615990640972238,-0.587717059644821,-0.216077741958599,-0.613901380568393,-0.397823638609794,-0.346808077961079,-0.0510155606487148
"120","a06","b15",-0.157098052344011,-0.0582699420756063,-0.459180117747327,-0.385389502114751,-0.0725781785449546,-0.0762779011907378,-0.0550473465611665,-0.430624067595123,-0.420018434605524,-0.405113431217518,-0.0838542841432952,-0.420065110656049,-0.336210826512753,-0.346808077961079,0.0105972514483257
"121","a06","b16",-0.147287304065317,-0.14603938082579,-0.57283313091256,-0.511769527141186,-0.157963496223213,-0.15973764987929,-0.145759316345952,-0.547779590444853,-0.535817910545219,-0.511072765938932,-0.151357429467912,-0.53585458499655,-0.384497155528638,-0.346808077961079,-0.0376890775675586
"122","a06","b17",-0.325842552480974,-0.252826608983147,-0.67817943787592,-0.584018646855936,-0.260854546435191,-0.258280551805368,-0.250359135494567,-0.647809015216108,-0.631291436553438,-0.603916709867595,-0.269632679039849,-0.629043049273799,-0.35941037023395,-0.346808077961079,-0.0126022922728709
"123","a06","b18",-0.264565580193853,-0.0567428141055469,-0.586790399459254,-0.495891344218941,-0.0705506984609112,-0.0645623271143744,-0.0634292751753819,-0.563887331288843,-0.55150171403573,-0.524116004560729,-0.103970139010013,-0.544437358712699,-0.440467219702686,-0.346808077961079,-0.0936591417416069
"124","a06","b19",-0.281099602900118,-0.214391661477016,-0.593713674922381,-0.512954555561662,-0.225566831896543,-0.22380024172142,-0.213355215060582,-0.559974603291784,-0.545866860391216,-0.515978252339263,-0.231642710611136,-0.545697589301261,-0.314054878690125,-0.346808077961079,0.0327531992709537
"125","a06","b20",-0.319418785465078,-0.313397000723959,-0.553053530741644,-0.45282866388283,-0.329547132694532,-0.326128734885073,-0.309278967349239,-0.510647305417834,-0.506526994928369,-0.47751301626997,-0.319554124223576,-0.500113902248129,-0.180559778024553,-0.346808077961079,0.166248299936526
"126","a06","pretest",-0.209922995752667,-0.163253899281053,-0.561411435243145,-0.485848307590029,-0.163349579991684,-0.167685465652814,-0.158847274159117,-0.536760461379597,-0.523716094322185,-0.489363306107774,-0.172611842967467,-0.519419920928546,-0.346808077961079,-0.346808077961079,0
"127","a07","b01",0.311242898730841,0.483276923708848,0.133772184276079,0.278624510586899,0.310064129748401,0.291333535199315,0.281678667769183,0.563960635262971,-0.00880723454294805,-0.426193841736808,0.335519231031318,0.108271250769239,-0.227247980262079,-0.197155980764245,-0.0300919994978343
"128","a07","b02",0.182057720240097,0.325250426890421,-0.0341618542175044,0.0613929117102429,0.185046784807316,0.171743543428249,0.160088614155411,0.374719296567996,-0.20439235459738,-0.671371859523826,0.204837417904299,-0.0947627720120942,-0.299600189916393,-0.197155980764245,-0.102444209152148
"129","a07","b03",0.241668070024307,0.454345008758325,-0.0462755365727488,0.219069468929461,0.244505632222854,0.218581642486386,0.21525713525828,0.438355218663093,-0.151565418953806,-0.494302386922276,0.27487149775003,-0.00694373097125518,-0.281815228721285,-0.197155980764245,-0.0846592479570408
"130","a07","b04",0.171438091884943,0.370158028247497,-0.0640266542427432,0.0780503457113399,0.176022097061247,0.155902110745942,0.143888457746393,0.363555172396218,-0.281473016727931,-0.676210312871481,0.203481757137204,-0.116020893146919,-0.319502650284124,-0.197155980764245,-0.122346669519879
"131","a07","b05",0.125565652799537,0.334676134079315,-0.0583308539038439,0.0740521188066761,0.11943610133762,0.0960269276765352,0.081189249335081,0.277230976909459,-0.28989675645714,-0.619484694196096,0.151378813045618,-0.123285841768189,-0.274664654813807,-0.197155980764245,-0.0775086740495619
"132","a07","b06",0.299608631368322,0.469536837211879,-0.0231641460860419,0.219618461739729,0.29142102328162,0.273185373187218,0.268771759550048,0.464073084618451,-0.259729814456721,-0.461315795857906,0.320504724919817,-0.012103642008498,-0.332608366928315,-0.197155980764245,-0.135452386164071
"133","a07","b07",0.285350528766583,0.474073089120397,-0.0391546478331358,0.151509977379697,0.288870700732578,0.265879508919934,0.26240615391011,0.314012871806029,-0.255739252728258,-0.416173897427349,0.31531599628992,-0.0491089897606033,-0.364424986050524,-0.197155980764245,-0.167269005286279
"134","a07","b08",0.335285355417923,0.516196539248642,0.0545237132670053,0.300539231699003,0.342753171353345,0.31552032286926,0.309769983358751,0.527350038975506,-0.240262581603743,-0.466330793926804,0.363905074449584,0.0351639216821935,-0.328741152767391,-0.197155980764245,-0.131585172003146
"135","a07","b09",0.0486103003327079,0.278409186782551,-0.14962308273887,0.0197204301437703,0.0467735685548107,0.0347355402557054,0.0229485133071711,0.334258736379147,-0.377253744659731,-0.727800531550784,0.0862954218465893,-0.180139638485294,-0.266435060331883,-0.197155980764245,-0.0692790795676383
"136","a07","b10",0.0683639093448144,0.271983986639191,-0.106200821246046,-0.0816663247371795,0.0743115607721083,0.0568236207899518,0.0505233263492508,0.347446678991323,-0.355091864992328,-0.755304609512552,0.104401280779063,-0.190163388299356,-0.29456466907842,-0.197155980764245,-0.097408688314175
"137","a07","b11",0.0651874775986083,0.265376422993778,-0.0834908236030227,0.0559162488723974,0.0715636873970524,0.058262094380021,0.0506846380476785,0.298634193007126,-0.368621597564397,-0.644704964862825,0.102214864083428,-0.148453388830144,-0.250668252913572,-0.197155980764245,-0.0535122721493274
"138","a07","b12",0.0252248208686136,0.263139366864289,-0.120699656805357,-0.0496481023776755,0.0238774186522861,0.00401400208503918,-0.00426164196188058,0.248006660174011,-0.438622206713845,-0.598419031024275,0.0623987933016694,-0.191876467349428,-0.254275260651098,-0.197155980764245,-0.0571192798868529
"139","a07","b13",0.146398710069582,0.347391405491575,-0.129503186908567,0.0625421261288459,0.148406304210371,0.135873304657622,0.126237063762204,0.203836440797033,-0.396627101858539,-0.556900373003544,0.180861357638271,-0.163330418968954,-0.344191776607225,-0.197155980764245,-0.14703579584298
"140","a07","b14",-0.102612830571984,0.101893184122834,-0.239616063588886,-0.109648153212279,-0.0935199431019067,-0.108552580710622,-0.111927003263713,0.178888420436932,-0.413664472099177,-0.632645012274106,-0.0629438347050782,-0.243337056147503,-0.180393221442425,-0.197155980764245,0.0167627593218198
"141","a07","b15",0.0385472903942832,0.188367223686108,-0.0635814377818603,-0.0751717474302279,0.046490607313869,0.0334935384297038,0.0302845133123063,0.402001531286686,-0.346189158070846,-0.647629080812965,0.067436634627254,-0.146113978561843,-0.213550613189097,-0.197155980764245,-0.0163946324248519
"142","a07","b16",0.19713548342622,0.364876785118402,-0.0232272894500609,0.00242254944390669,0.198464579948924,0.180267309240164,0.173651333584734,0.378696333910904,-0.222679994155329,-0.561375428725891,0.222879098263689,-0.0852327657952941,-0.308111864058983,-0.197155980764245,-0.110955883294738
"143","a07","b17",0.0515143077893872,0.27365536712007,-0.0728285013113793,-0.0304222366999114,0.0502469064801847,0.0286768924958418,0.0240772147314816,0.343882211250427,-0.324907337542533,-0.553465216021566,0.085634137723393,-0.127548216064993,-0.213182353788386,-0.197155980764245,-0.0160263730241409
"144","a07","b18",0.171417159073,0.362274988886362,-0.168085824988948,0.189405518549815,0.172764513743076,0.146086097835925,0.127591657221964,0.390336167827925,-0.215304899132512,-0.433475933981612,0.196026883352066,-0.0474249943450666,-0.243451877697132,-0.197155980764245,-0.0462958969328876
"145","a07","b19",0.0492181289678651,0.276582754804526,-0.135927255301526,0.0457165945407616,0.0562025460423854,0.0325316566481271,0.0289777825698471,0.415445533601633,-0.279748108888383,-0.579028366385124,0.0887025738065502,-0.106708320486528,-0.195410894293078,-0.197155980764245,0.00174508647116672
"146","a07","b20",0.207050469238369,0.403172632354231,-0.109317252869515,0.182804263080068,0.206470029183745,0.183070387607267,0.172781964231701,0.469466496387016,-0.287741658357085,-0.426652440750361,0.234509096523062,-0.0342881185019753,-0.268797215025038,-0.197155980764245,-0.071641234260793
"147","a07","pretest",1.00011677071804,1.21819286317831,1.01881367605206,0.965159688011499,1.0004605394614,0.993315982425167,0.989393497020434,1.11698367714381,0.721866578662692,0.392876129112073,1.04029593056067,0.843139949796427,-0.197155980764245,-0.197155980764245,0
"148","a08","b01",0.425542337909047,-0.104365937855282,-0.4705046497328,-0.359975291973725,0.439058092775091,0.0478245036650118,0.0514780393295638,-0.545882842886242,-0.552705038382292,-0.292443738075992,0.171907407164686,-0.44430231221021,-0.616209719374897,-0.472495873933669,-0.143713845441228
"149","a08","b02",0.270426490155117,-0.261728616291812,-0.693716971431072,-0.564665205101349,0.294561166809099,-0.122102894974494,-0.11517070197902,-0.674925589363965,-0.684428769375141,-0.490909205807486,0.0131970887437781,-0.621729148215802,-0.634926236959581,-0.472495873933669,-0.162430363025912
"150","a08","b03",0.26101207276475,-0.198018390279855,-0.751585481427201,-0.508769351843251,0.27227776318641,-0.146929904231685,-0.140454564895878,-0.781761631486331,-0.796925585547381,-0.437644432835897,0.00957739530874843,-0.655337296628012,-0.664914691936761,-0.472495873933669,-0.192418818003092
"151","a08","b04",0.16142032057733,-0.357602425671303,-0.836656830614424,-0.583107284761768,0.178241784322743,-0.230144061737094,-0.213019706644394,-0.819898900649076,-0.83997922399708,-0.506422374488041,-0.0922208178305435,-0.717212922902078,-0.624992105071534,-0.472495873933669,-0.152496231137865
"152","a08","b05",0.339539361037573,-0.163431868787563,-0.615784047402282,-0.49630747079208,0.358488825116537,-0.0276053400168948,-0.0248997713462165,-0.601680103922291,-0.60762480777833,-0.426655206433181,0.0964182412006869,-0.549610327265633,-0.64602856846632,-0.472495873933669,-0.173532694532651
"153","a08","b06",0.0942928265974895,-0.40025018106557,-0.936071182577422,-0.560501272131349,0.114746212825057,-0.313928708086798,-0.297590933874046,-0.907144264300619,-0.924712912213978,-0.487104257465556,-0.160546156720774,-0.763106777737785,-0.602560621017011,-0.472495873933669,-0.130064747083342
"154","a08","b07",0.206236041542056,-0.276533058391484,-0.733443486324083,-0.48369237022081,0.224972061817603,-0.165348675471031,-0.145846665262415,-0.69168742327662,-0.693548168106223,-0.40841258328985,-0.0313040591530543,-0.602156806243517,-0.570852747090463,-0.472495873933669,-0.0983568731567942
"155","a08","b08",0.21766711098119,-0.286520647736776,-0.79228735701916,-0.495630833447727,0.239962544426861,-0.15836670851468,-0.153674866640671,-0.713105225122918,-0.731065953366941,-0.421871153820407,-0.0281865134968152,-0.63079210455543,-0.602605591058615,-0.472495873933669,-0.130109717124946
"156","a08","b09",0.13054595645763,-0.331526750834709,-0.902240707637094,-0.561760142110451,0.145481199696233,-0.247400708901585,-0.237531127135934,-0.822408557502244,-0.829910495841075,-0.490824158154652,-0.108086286143673,-0.721428812249103,-0.61334252610543,-0.472495873933669,-0.140846652171761
"157","a08","b10",0.0224970051071836,-0.436207307629245,-0.901492190341615,-0.521885721687074,0.0383404498532975,-0.333068561496377,-0.32629056815633,-0.794794480551348,-0.801283570652387,-0.445258763387706,-0.206945796464294,-0.692942945324026,-0.485997148859732,-0.472495873933669,-0.0135012749260627
"158","a08","b11",0.339982959750865,-0.122956875652507,-0.613302849878082,-0.540175251492303,0.354609430436145,-0.00241461635414791,0.00403470666407744,-0.674904057398509,-0.674099058961791,-0.462578622184156,0.114651120968887,-0.593011967982968,-0.707663088951855,-0.472495873933669,-0.235167215018186
"159","a08","b12",0.180072382333034,-0.332770603030929,-0.731394973954793,-0.46093386196917,0.200740408466588,-0.160960331742884,-0.148030896132779,-0.591577554861329,-0.60223622316369,-0.392640676744527,-0.0521898080213939,-0.555756658138702,-0.503566850117308,-0.472495873933669,-0.031070976183639
"160","a08","b13",0.337171966426799,-0.127148305869857,-0.62013896069127,-0.481044936859331,0.349315228224853,-0.00919048741961424,-0.012490257630722,-0.609166361037406,-0.61985852723561,-0.414733253530422,0.107531628746292,-0.548988407870808,-0.6565200366171,-0.472495873933669,-0.184024162683431
"161","a08","b14",-0.00940810630393501,-0.537440217815237,-1.01451750639271,-0.574572426675603,0.0112747597239514,-0.411397076077799,-0.395923389277977,-0.871358073379493,-0.885259193693796,-0.501182314349924,-0.268578805950199,-0.769377902898306,-0.500799096948106,-0.472495873933669,-0.0283032230144376
"162","a08","b15",0.126988462455979,-0.302009558921529,-0.762041354257081,-0.627461290804554,0.155783484408612,-0.204622615010531,-0.198339965618332,-0.601654198725621,-0.614350064969714,-0.558555700872684,-0.0844400385371604,-0.632812521925931,-0.54837248338877,-0.472495873933669,-0.0758766094551014
"163","a08","b16",0.372273504545107,-0.0858195950323233,-0.638494160790219,-0.446849226448918,0.393140445619684,0.070604394573068,0.066131760682817,-0.595303082568387,-0.609688740133285,-0.364967518248315,0.163266102077671,-0.531060545637825,-0.694326647715496,-0.472495873933669,-0.221830773781827
"164","a08","b17",0.490532934606421,-0.0646984107599165,-0.504539744193171,-0.478925602425764,0.535795172748556,0.119175406918696,0.128796172953879,-0.463718803140102,-0.480831225396329,-0.418995273054551,0.241920255293527,-0.469402129641983,-0.71132238493551,-0.472495873933669,-0.238826511001841
"165","a08","b18",0.457833254445395,-0.00637177573592379,-0.518860676381509,-0.474398034765551,0.47267500724547,0.129937301430273,0.138360919329283,-0.396787301253455,-0.406155407782358,-0.41089185732191,0.238486941342899,-0.441418655500957,-0.679905596843856,-0.472495873933669,-0.207409722910187
"166","a08","b19",0.119853020845141,-0.352330374730183,-0.796913735683442,-0.442376537484721,0.139119820898237,-0.237056034442766,-0.227135518613922,-0.610068757695173,-0.615056777152684,-0.370098607138404,-0.111509817208698,-0.566902883030885,-0.455393065822186,-0.472495873933669,0.0171028081114826
"167","a08","b20",0.378068827952988,-0.1736157190247,-0.625658948505487,-0.384161682809194,0.395553883205798,-0.00164274695981155,0.00101657044072345,-0.44538510548873,-0.458763073146144,-0.317947130781908,0.119876163122999,-0.446383188146293,-0.566259351269292,-0.472495873933669,-0.0937634773356235
"168","a08","pretest",-0.334570141850827,-0.724823379275145,-1.15964551008164,-0.801767015110018,-0.315958556865721,-0.757961166328097,-0.743905658199457,-1.28032981868751,-1.29336539961428,-0.704590528694149,-0.575443780503849,-1.04793965443752,-0.472495873933669,-0.472495873933669,0
"169","a09","b01",-0.726260487592246,-0.904886635744366,-0.584894776378642,-0.562908892414753,-0.722303653846142,-0.711963325976807,-0.712399576183354,-0.580672808766322,-0.564959547660378,-0.546611103583561,-0.755562735868583,-0.568009425760731,0.187553310107852,0.173896619440632,0.0136566906672201
"170","a09","b02",-0.677297454571861,-0.670595537955461,-0.380926059236359,-0.358822485048622,-0.672902785189694,-0.653875779245097,-0.6646452439847,-0.385026359960199,-0.360531199254088,-0.353254160548162,-0.667863360189363,-0.367712052809486,0.300151307379876,0.173896619440632,0.126254687939245
"171","a09","b03",-0.894595725307011,-0.872700133152061,-0.530719814545122,-0.502878653341634,-0.889643425102258,-0.878162616291154,-0.884239598802139,-0.535071866824445,-0.516435046071666,-0.509410494342553,-0.883868299730925,-0.518903175025084,0.364965124705841,0.173896619440632,0.191068505265209
"172","a09","b04",-0.897638320351462,-0.888399626193243,-0.355213921305505,-0.288616561926074,-0.898614150017694,-0.880607067178818,-0.872866276210406,-0.35652432883488,-0.298922491164596,-0.290018577809227,-0.887625087990325,-0.317859176208056,0.569765911782268,0.173896619440632,0.395869292341636
"173","a09","b05",-0.71430053582509,-0.723327107861127,-0.208385989458015,-0.136910937424469,-0.717826230821628,-0.711047476147484,-0.711501111912314,-0.20225438369513,-0.136924188547413,-0.137640425650575,-0.715600492513529,-0.16442318495512,0.551177307558408,0.173896619440632,0.377280688117776
"174","a09","b06",-0.812881080025831,-0.817477189383168,-0.21457793303532,-0.157800652057576,-0.814157400832353,-0.802281241786582,-0.81290163642048,-0.205076471002643,-0.166611584768909,-0.155963444982262,-0.811939709689683,-0.180006017169342,0.631933692520341,0.173896619440632,0.458037073079709
"175","a09","b07",-0.605788135797507,-0.601328882665085,0.0110651844417751,0.0499031072634947,-0.606103104615632,-0.596209826672769,-0.593320923920796,0.0174780754609054,0.0423355628050493,0.0516390979167643,-0.600550174734358,0.0344842055775978,0.635034380311956,0.173896619440632,0.461137760871324
"176","a09","b08",-0.572098224759706,-0.560088703036342,-0.161611878966058,-0.0988606506761907,-0.574128808068471,-0.564736657881707,-0.572039271115834,-0.150813998618485,-0.105375831616963,-0.0959854831276111,-0.568618332972412,-0.122529568601062,0.44608876437135,0.173896619440632,0.272192144930719
"177","a09","b09",-0.364824980205701,-0.333215488891662,-0.0710137298666463,-0.0101083107978034,-0.362605956314752,-0.356944778373215,-0.353100444014652,-0.0610769887920123,-0.0253263166768665,-0.0148733339584067,-0.354138329559996,-0.036479736018347,0.317658593541649,0.173896619440632,0.143761974101018
"178","a09","b10",-0.811003690894459,-0.808099443582495,-0.304404841315357,-0.227643809867686,-0.823338503705066,-0.810475470984027,-0.807746516672973,-0.305144820221843,-0.244659428140717,-0.236897397792142,-0.812132725167804,-0.263750059467549,0.548382665700255,0.173896619440632,0.374486046259623
"179","a09","b11",-0.756732588369985,-0.725777906509938,-0.316487800726914,-0.279175493349661,-0.755559356421202,-0.753748901159647,-0.749020097055716,-0.321929356502498,-0.286458024762116,-0.274007563425363,-0.748167769903298,-0.29561164775331,0.452556122149987,0.173896619440632,0.278659502709356
"180","a09","b12",-0.65108990652514,-0.626175470397584,-0.207568308527845,-0.214356094727268,-0.646355363068893,-0.645490843858148,-0.641592142618209,-0.199982359895838,-0.217437996332606,-0.21179773463807,-0.642140745293595,-0.210228498824326,0.431912246469269,0.173896619440632,0.258015627028637
"181","a09","b13",-0.813247851192555,-0.784518953533432,-0.330538541551332,-0.28751754989008,-0.825947753131071,-0.804383871955055,-0.810312731770717,-0.330565587128756,-0.295789004996005,-0.280352606267907,-0.807682232316566,-0.304952657966816,0.50272957434975,0.173896619440632,0.328832954909119
"182","a09","b14",-0.678036749099631,-0.663882245905286,-0.315745914139206,-0.277958677902498,-0.676732294673441,-0.6669298478307,-0.66274239402391,-0.318243275767623,-0.279620708472194,-0.271925815927826,-0.669664706306593,-0.292698878441869,0.376965827864724,0.173896619440632,0.203069208424092
"183","a09","b15",-0.626916857440008,-0.605832090740322,-0.255045228406591,-0.206652359865083,-0.63417238854249,-0.620625084621483,-0.62745452701143,-0.255358678316409,-0.209107061285964,-0.209129093675486,-0.623000189671147,-0.227058484309907,0.39594170536124,0.173896619440632,0.222045085920608
"184","a09","b16",-0.747590081466896,-0.740073744882597,-0.392724026871088,-0.348851770758282,-0.749562991939376,-0.737667377552691,-0.73359271256888,-0.384213113138188,-0.348920357582737,-0.351994083526967,-0.741697381682088,-0.365340670375452,0.376356711306636,0.173896619440632,0.202460091866004
"185","a09","b17",-0.601089218864492,-0.582131341622957,-0.143469896279433,-0.0928108976299392,-0.613189473995688,-0.587291471733283,-0.588128081799318,-0.133330103602301,-0.101824044877038,-0.0904612798812603,-0.594365917603148,-0.112379244453994,0.481986673149154,0.173896619440632,0.308090053708522
"186","a09","b18",-0.472957969245318,-0.447175155823818,-0.0797038733529735,-0.0232266748421036,-0.470973669831525,-0.459589241982347,-0.464277036886278,-0.0777288770943793,-0.038823736662231,-0.0218962520442373,-0.462994614753857,-0.0482758827991849,0.414718731954672,0.173896619440632,0.240822112514041
"187","a09","b19",-0.590265098405825,-0.558622105182496,-0.122307987677689,-0.0668425700221835,-0.581846086974764,-0.576266889405174,-0.576281449882457,-0.122252001992608,-0.0842772981312085,-0.0723946199417824,-0.576656325970143,-0.0936148955530944,0.483041430417049,0.173896619440632,0.309144810976417
"188","a09","b20",-0.824724995498306,-0.80759914187257,-0.273837208652446,-0.219203625893406,-0.820337687648459,-0.809388882203662,-0.805309269204967,-0.270187542494561,-0.236402717658376,-0.21607465181393,-0.813471995285593,-0.243141149302544,0.570330845983049,0.173896619440632,0.396434226542417
"189","a09","pretest",-0.479200017563857,-0.451215720705275,-0.311518379511927,-0.293346223511851,-0.480660622087086,-0.468273135725512,-0.481164181447368,-0.302030996154443,-0.292301063645565,-0.291833917502152,-0.47210273550582,-0.298206116065188,0.173896619440632,0.173896619440632,0
"190","a10","b01",-1.22111746735989,-0.954596388078792,-0.947653382689094,-1.4766188964366,-1.20023580746935,-0.927650018363377,-0.931273542582925,-1.23590764250702,-1.25479108027248,-1.30342211731964,-1.04697464477087,-1.24367862384496,-0.196703979074099,-0.138628249557773,-0.0580757295163261
"191","a10","b02",-1.36760595786745,-1.14450517825598,-1.14409044306784,-1.64427200879877,-1.33779622807862,-1.17781400196826,-1.16043043175359,-1.4834968197961,-1.52703649051387,-1.56261230287255,-1.23763035958478,-1.47230161300983,-0.234671253425048,-0.138628249557773,-0.0960430038672755
"192","a10","b03",-1.32944125526992,-1.07059879391113,-1.06956094997447,-1.68510010091664,-1.30947558452943,-1.15753383009214,-1.13328363828412,-1.51767366681015,-1.54818294585607,-1.60312474657686,-1.20006662041735,-1.48472848202684,-0.284661861609489,-0.138628249557773,-0.146033612051716
"193","a10","b04",-1.37996050984221,-1.22305515422739,-1.20897343582623,-1.68219892798914,-1.34979395936131,-1.21714639223947,-1.22097060835707,-1.54050425695023,-1.56256757293774,-1.61697285080408,-1.27818532480549,-1.52224340890148,-0.244058084095991,-0.138628249557773,-0.105429834538219
"194","a10","b05",-1.34087252087717,-1.16668236451154,-1.15221879947155,-1.72859757942364,-1.3063691064706,-1.24192528381418,-1.24877964948684,-1.54662610766929,-1.56916739033139,-1.62361589890759,-1.26092578503207,-1.52404515516069,-0.263119370128628,-0.138628249557773,-0.124491120570855
"195","a10","b06",-1.47974316325226,-1.29450827438671,-1.28255388497674,-1.71480768046057,-1.42719343225681,-1.37003670337214,-1.36950156305006,-1.63961594169994,-1.67827039635754,-1.73256129307472,-1.3881966272636,-1.6095618393139,-0.221365212050304,-0.138628249557773,-0.0827369624925307
"196","a10","b07",-1.3681589558262,-1.28199643877767,-1.26008218005491,-1.8054571569677,-1.3385231161086,-1.27354657715871,-1.27064554602527,-1.61522248044994,-1.65525619513757,-1.71147429440924,-1.30657412677929,-1.60949846140387,-0.30292433462458,-0.138628249557773,-0.164296085066808
"197","a10","b08",-1.39334231440661,-1.23431002406226,-1.19589041258565,-1.62502962319419,-1.35735766106586,-1.27022568654008,-1.27681297675416,-1.52341305125729,-1.5676382740929,-1.6177647405015,-1.3064097325658,-1.50594722032631,-0.19953748776051,-0.138628249557773,-0.060909238202737
"198","a10","b09",-1.48555025599681,-1.34045976492259,-1.3435217769909,-1.7807666397582,-1.45838998093879,-1.34409359460178,-1.33523441742017,-1.66198967110685,-1.70172370971206,-1.7604147772055,-1.39274560277603,-1.6496833149547,-0.256937712178677,-0.138628249557773,-0.118309462620904
"199","a10","b10",-1.40739686088023,-1.19882904088345,-1.19648609670674,-1.67770646783037,-1.37207169118414,-1.29704683357045,-1.28385984550561,-1.6352459956747,-1.68154185353584,-1.73115263555796,-1.31184085440478,-1.58442660986112,-0.272585755456346,-0.138628249557773,-0.133957505898573
"200","a10","b11",-1.32082716023234,-1.24573835519258,-1.244057528719,-1.71087703927915,-1.28486485651752,-1.31661692508605,-1.3106764913071,-1.65622318477997,-1.68839154990081,-1.74643337510932,-1.29574475766712,-1.60919653555765,-0.313451777890529,-0.138628249557773,-0.174823528332756
"201","a10","b12",-1.48051005331914,-1.28407590577468,-1.28554440734259,-1.73807456383899,-1.44892029761822,-1.41201796304074,-1.39933519037828,-1.69307125972469,-1.75259127490961,-1.78707229451356,-1.40497188202621,-1.65127076006589,-0.246298878039676,-0.138628249557773,-0.107670628481904
"202","a10","b13",-1.43820615797146,-1.36155285428619,-1.34985010428765,-1.74880861706842,-1.41174794178549,-1.37074195934322,-1.35383726377422,-1.6926169588699,-1.73160663716847,-1.78608636501711,-1.38721723543211,-1.66179373648231,-0.274576501050197,-0.138628249557773,-0.135948251492424
"203","a10","b14",-1.54664763660686,-1.41688037034411,-1.41685270211158,-1.77255898933056,-1.51370046893708,-1.47315265051848,-1.44519530228083,-1.68892054731528,-1.74364185586212,-1.79645186359821,-1.47911528573747,-1.68368519164355,-0.204569905906077,-0.138628249557773,-0.0659416563483042
"204","a10","b15",-1.19940876111777,-1.30116542940587,-1.29986462189311,-1.77578790125576,-1.17351149772857,-1.42534643263966,-1.40433995990005,-1.67751618752567,-1.7035639463533,-1.78032635302537,-1.30075441615838,-1.64741180201064,-0.346657385852257,-0.138628249557773,-0.208029136294484
"205","a10","b16",-1.28809766787681,-1.36989674046389,-1.35253198472955,-1.78426328207445,-1.25446062464883,-1.51745342489851,-1.50069698500389,-1.71293121016334,-1.75755306344482,-1.81363588950053,-1.38612108857839,-1.68418308598254,-0.29806199740415,-0.138628249557773,-0.159433747846377
"206","a10","b17",-1.29966589552564,-1.35626791043044,-1.35725202483592,-1.76698738958257,-1.27551342371329,-1.54988624310304,-1.54960612423899,-1.65835419703342,-1.69710269712695,-1.73281279404585,-1.40618791940228,-1.64250182052494,-0.236313901122662,-0.138628249557773,-0.0976856515648896
"207","a10","b18",-1.28863169941821,-1.13310468895361,-1.1337455797519,-1.58281034750005,-1.27150398837653,-1.47199697593559,-1.47503385660595,-1.49558305008383,-1.53457731363945,-1.5943243777206,-1.32805424185798,-1.46820813373917,-0.14015389188119,-0.138628249557773,-0.00152564232341734
"208","a10","b19",-1.34385512800447,-1.39820098371531,-1.38755843229184,-1.75115089573688,-1.31158767561352,-1.63622907222309,-1.61936809839017,-1.66402844269805,-1.69725966412356,-1.76050463192544,-1.46184819158931,-1.65210041335515,-0.19025222176584,-0.138628249557773,-0.0516239722080676
"209","a10","b20",-1.28884729606646,-1.30169904463783,-1.28769095465888,-1.68720281173129,-1.25160715163278,-1.56388911343082,-1.55078506238081,-1.61946500677932,-1.64367208731593,-1.72161320598021,-1.39136553362974,-1.59192881329312,-0.200563279663383,-0.138628249557773,-0.0619350301056105
"210","a10","pretest",-1.64477967553581,-1.40620584595329,-1.40060934360986,-1.84930532824022,-1.59192105079665,-1.37408195255269,-1.36589739338088,-1.56773912579035,-1.61220363807628,-1.64616973029148,-1.47657718364387,-1.61520543320164,-0.138628249557773,-0.138628249557773,0
"211","a11","b01",-0.0224787020138165,-0.033699486982427,-0.199653739504427,-0.382509284229342,-0.287023691972186,-0.284446764576244,-0.167906746209616,-0.193013230662922,-0.361378865141743,-0.369533102323246,-0.159111078350858,-0.301217644372336,-0.142106566021478,-0.07466936579324,-0.067437200228238
"212","a11","b02",-0.0521115605154816,-0.0633004966224684,-0.319914650575044,-0.611510120864697,-0.333024157680809,-0.335831956317691,-0.236909656714951,-0.328215731795341,-0.585523781334255,-0.59185532562746,-0.20423556557028,-0.487403922039359,-0.283168356469079,-0.07466936579324,-0.208498990675839
"213","a11","b03",-0.179738920330276,-0.197187758215853,-0.439039689111215,-0.537799677170463,-0.41719095560298,-0.410083246383273,-0.350914387726787,-0.442907239440712,-0.514436769925646,-0.51826675210275,-0.311023053651834,-0.490490025550157,-0.179466971898324,-0.07466936579324,-0.104797606105084
"214","a11","b04",-0.186773405792902,-0.196397429443448,-0.238542251631092,-0.456414920159966,-0.456050045261946,-0.448243231425048,-0.407321997101613,-0.250591382531847,-0.433519441366167,-0.442863040947044,-0.338957221804991,-0.364386207327223,-0.0254289855222319,-0.07466936579324,0.0492403802710081
"215","a11","b05",-0.0135319480840588,-0.0257018675817126,-0.308845769951441,-0.506983605376335,-0.268339311659291,-0.269113394607659,-0.241716960973191,-0.312318179518592,-0.481480751353543,-0.48701696439305,-0.163680696581183,-0.419329054118592,-0.25564835753741,-0.07466936579324,-0.18097899174417
"216","a11","b06",-0.183378386401445,-0.204527469598212,-0.469281180177148,-0.549914903739723,-0.440864678759692,-0.440085155551357,-0.413663193959053,-0.474271066954143,-0.533275522366126,-0.533555404959004,-0.336503776853952,-0.512059615639229,-0.175555838785277,-0.07466936579324,-0.100886472992037
"217","a11","b07",-0.0798028302312848,-0.096414671005794,-0.23276524722862,-0.504076149888041,-0.31627308514753,-0.305463212217473,-0.227755157505048,-0.239917363132047,-0.488102689702313,-0.500063893726516,-0.205141791221426,-0.392985068735508,-0.187843277514082,-0.07466936579324,-0.113173911720842
"218","a11","b08",-0.171276944247246,-0.182314755218091,-0.336488120809204,-0.524625757065701,-0.390701210073637,-0.40179833227105,-0.322661066853451,-0.345890075441432,-0.508295841666867,-0.516467440322625,-0.293750461732695,-0.446353447061166,-0.152602985328471,-0.07466936579324,-0.0779336195352309
"219","a11","b09",-0.204563181789767,-0.217537817012309,-0.340008667855242,-0.461394977429887,-0.370405015274826,-0.389938214016066,-0.331295249021436,-0.339189822987196,-0.431088186638544,-0.443941328029953,-0.302747895422881,-0.403124596588165,-0.100376701165284,-0.07466936579324,-0.0257073353720437
"220","a11","b10",-0.167335611282239,-0.177020046562889,-0.32505866871007,-0.467807751467631,-0.451333533708753,-0.456491372190137,-0.408779747575491,-0.323192362160948,-0.445282735140023,-0.450437206842433,-0.332192062263902,-0.402355744864221,-0.0701636826003195,-0.07466936579324,0.00450568319292055
"221","a11","b11",-0.162050041695269,-0.167399728344601,-0.259223681636315,-0.447863970490782,-0.475518681657557,-0.480998014247977,-0.395870705547368,-0.251746777421185,-0.431949110558213,-0.431558805443172,-0.336367434298554,-0.364468469109933,-0.0281010348113789,-0.07466936579324,0.0465683309818611
"222","a11","b12",-0.140179981434045,-0.142622254478392,-0.225594707923884,-0.489512222559006,-0.375661181688485,-0.36827124089255,-0.262739168835123,-0.230744134999863,-0.459603176358832,-0.46797617616637,-0.257894765465719,-0.374686083601591,-0.116791318135872,-0.07466936579324,-0.042121952342632
"223","a11","b13",-0.283970684905688,-0.292180513912297,-0.310891602752393,-0.516928795670553,-0.507987105764294,-0.519374357026328,-0.433768427252663,-0.30913130602464,-0.501896118150802,-0.50769698986334,-0.407456217772254,-0.429308962492346,-0.0218527447200919,-0.07466936579324,0.0528166210731481
"224","a11","b14",-0.111682834098588,-0.12389488961794,-0.29905370069287,-0.545259497386997,-0.358902254241367,-0.353245154871498,-0.268395808141098,-0.304451355787978,-0.525566011545487,-0.529076186669162,-0.243224188194098,-0.440681350416499,-0.1974571622224,-0.07466936579324,-0.12278779642916
"225","a11","b15",-0.236626962331742,-0.245717672290333,-0.261721207563538,-0.497560150565692,-0.458521365589534,-0.472887129248511,-0.377373185007982,-0.26519162677362,-0.466041847345088,-0.475297329652994,-0.35822526289362,-0.393162432380186,-0.0349371694865663,-0.07466936579324,0.0397321963066737
"226","a11","b16",-0.212166152598172,-0.216741764919462,-0.33644854531447,-0.625308047485875,-0.505575609919406,-0.507482753573372,-0.415101274695569,-0.335462519448733,-0.597834787857391,-0.6023222671487,-0.371413511141196,-0.499475233451034,-0.128061722309837,-0.07466936579324,-0.0533923565165975
"227","a11","b17",-0.189737122194502,-0.199588009252268,-0.276233005885122,-0.534409370812798,-0.453571721258397,-0.470132346911711,-0.370654506755237,-0.277768579816498,-0.50918374171227,-0.524533853212357,-0.336736741274423,-0.424425710287809,-0.0876889690133861,-0.07466936579324,-0.0130196032201461
"228","a11","b18",-0.195655747708159,-0.198632558042469,-0.230640514080772,-0.473368000146628,-0.480067988840298,-0.482224034112936,-0.414224615455115,-0.239180357169505,-0.452463819863093,-0.465781222174514,-0.354160988831795,-0.372286782686902,-0.0181257938551071,-0.07466936579324,0.0565435719381329
"229","a11","b19",-0.22204047267201,-0.229643041750129,-0.338656039248886,-0.561034719052477,-0.490500801107057,-0.483272179759562,-0.457755604070665,-0.346238015816593,-0.531656524439221,-0.551396116725778,-0.376642419871885,-0.465796283056591,-0.0891538631847065,-0.07466936579324,-0.0144844973914665
"230","a11","b20",-0.187025722558098,-0.189372935340913,-0.180161833649439,-0.411142626558751,-0.506729100986748,-0.49276133995503,-0.403066956721679,-0.189550475770686,-0.390775617304058,-0.404742453752186,-0.355791211112494,-0.315274601407024,0.0405166097054694,-0.07466936579324,0.115185975498709
"231","a11","pretest",-0.413279267480465,-0.41098460095505,-0.432193883833965,-0.774254919359953,-0.739965448267498,-0.739285694422662,-0.452549970748534,-0.407183837308271,-0.749070400927003,-0.766708769411216,-0.551212996374842,-0.625882362168082,-0.07466936579324,-0.07466936579324,0
"232","a12","b01",0.146598966008714,-0.73200671449209,-0.711920005432561,-0.732984775227126,-0.675792710580241,-0.696962475113919,-0.709489817056556,-0.629286324592004,-0.630201169576507,-0.733720919028568,-0.533530550246819,-0.687622638771353,-0.154092088524535,-0.15472035263932,0.00062826411478506
"233","a12","b02",-0.0588360910258679,-0.991976468939236,-0.879408898797691,-0.902393613452745,-0.947573502461839,-0.955941469713538,-0.980514084448872,-0.671344925713172,-0.659503597588466,-0.903307606800926,-0.786968323317871,-0.8031917284706,-0.0162234051527291,-0.15472035263932,0.138496947486591
"234","a12","b03",-0.154518232205063,-1.1813756207713,-1.17491506466655,-1.2182560775441,-1.12202342001685,-1.13744790293628,-1.16097363340192,-1.01566158197702,-1.0150823483104,-1.20502893713934,-0.951267761866282,-1.12578880192748,-0.174521040061199,-0.15472035263932,-0.0198006874218788
"235","a12","b04",-0.103780504647889,-1.0486303809709,-0.943962060818654,-0.984698782124902,-1.00110879623608,-1.02462276775218,-1.03217467199858,-0.791345705216818,-0.795044282960176,-0.992249800183374,-0.842063424321126,-0.901460126260785,-0.0593967019396583,-0.15472035263932,0.0953236506996614
"236","a12","b05",-0.072781014568145,-0.957205874275773,-0.936137304641541,-0.962505933798147,-0.913890338778389,-0.928344069727289,-0.939620534860484,-0.802814245345068,-0.79891801260241,-0.971072482824337,-0.762368366442016,-0.8942895958423,-0.131921229400285,-0.15472035263932,0.0227991232390352
"237","a12","b06",-0.0770078487761013,-1.00258412267528,-0.970457000338735,-1.00011786418015,-0.971314690660658,-0.980874657903242,-0.992741288741212,-0.808786097718235,-0.812574015300603,-1.00060183797423,-0.804904521751298,-0.918507363102391,-0.113602841351093,-0.15472035263932,0.0411175112882265
"238","a12","b07",-0.0241074136199742,-0.897510559946974,-1.0349484567413,-1.07711029173207,-0.868997857693164,-0.877071743825822,-0.884416344758046,-0.813259584625038,-0.810123784240277,-1.09877818612,-0.710420783968796,-0.966844060691738,-0.256423276722942,-0.15472035263932,-0.101702924083623
"239","a12","b08",0.00855102378418811,-0.835495227672233,-0.743963194486627,-0.776536499919918,-0.791807357702344,-0.80463173050895,-0.8319442623685,-0.706228622371074,-0.714688124870541,-0.779260954336476,-0.651065510893568,-0.744135479196927,-0.0930699683033595,-0.15472035263932,0.0616503843359602
"240","a12","b09",-0.0839923789864318,-0.874781955414324,-0.923087753327042,-0.950645369287915,-0.829861886736165,-0.849582267133423,-0.858912647625261,-0.847303199229384,-0.845058872901301,-0.966285080653837,-0.699426227179121,-0.906476055079896,-0.207049827900775,-0.15472035263932,-0.0523294752614552
"241","a12","b10",-0.0819035934464639,-0.945218460785253,-0.931220688688258,-0.970575152337254,-0.904506886037536,-0.923036856318492,-0.942444497759335,-0.807993273983301,-0.80571969716025,-0.994106811992073,-0.759422058869416,-0.901923124832227,-0.142501065962811,-0.15472035263932,0.0122192866765083
"242","a12","b11",0.0218507516713822,-0.761124381698984,-0.732192679724589,-0.759583322659355,-0.728994988067377,-0.745720366778778,-0.756341923204432,-0.707263101634807,-0.698705335450843,-0.77534327450443,-0.594066181615638,-0.734617542794805,-0.140551361179167,-0.15472035263932,0.0141689914601527
"243","a12","b12",-0.0537378687769235,-0.852136220191035,-0.824451909801219,-0.863848299442343,-0.815180379372031,-0.823162764978935,-0.834501373111916,-0.771577220786378,-0.768521593087042,-0.882866027076111,-0.675743721286168,-0.822253010038619,-0.14650928875245,-0.15472035263932,0.00821106388686926
"244","a12","b13",-0.136958792198839,-0.893039115251426,-0.919847165269384,-0.962409599285082,-0.865758187386615,-0.880891983667708,-0.89271260436457,-0.641202021961569,-0.638906935100568,-0.958014136459952,-0.733872136573832,-0.824075971615311,-0.0902038350414796,-0.15472035263932,0.0645165175978401
"245","a12","b14",-0.0100400311974533,-0.961130789785737,-0.889927056830604,-0.931543029027231,-0.92169364510712,-0.934662902661394,-0.954684849483129,-0.794803251574181,-0.791949078939602,-0.937359412489274,-0.756442443646967,-0.869116365772178,-0.112673922125212,-0.15472035263932,0.0420464305141079
"246","a12","b15",-0.0991709874179447,-1.01806418090389,-0.93684467964642,-0.980889789979291,-0.982476420178636,-0.998585891222923,-1.00900432180548,-0.760553329477176,-0.76206118880255,-0.980883277965369,-0.821460360305776,-0.884246453174161,-0.0627860928683854,-0.15472035263932,0.0919342597709342
"247","a12","b16",-0.00756168440479959,-0.908674039179669,-0.884337702634785,-0.929619141135924,-0.880150286507518,-0.883029011562713,-0.892373632875664,-0.773744978680408,-0.771548245411426,-0.93950554008359,-0.714357730906073,-0.859751121589227,-0.145393390683154,-0.15472035263932,0.00932696195616561
"248","a12","b17",-0.0537956105177966,-0.819782160165696,-0.790695623636787,-0.830762700680404,-0.783286333687617,-0.800707039210746,-0.805681013195477,-0.691001757142904,-0.694185915244462,-0.840177100041397,-0.652650431355466,-0.769364619349191,-0.116714187993724,-0.15472035263932,0.0380061646455953
"249","a12","b18",0.104150528043661,-0.758240323584009,-0.679323976222949,-0.709190392932314,-0.707308817314101,-0.7318021971549,-0.748610219768699,-0.623034853664394,-0.611564109205848,-0.715673056688549,-0.568362205955609,-0.667757277742811,-0.0993950717872017,-0.15472035263932,0.0553252808521179
"250","a12","b19",-0.0649129796496639,-0.878393566126512,-0.887113960697636,-0.934248682232984,-0.832518622030577,-0.847549212806175,-0.861307342030091,-0.877623757893716,-0.872771076679038,-0.942039393817371,-0.696936344528604,-0.902759374264149,-0.205823029735545,-0.15472035263932,-0.0511026770962258
"251","a12","b20",-0.0955279227055798,-0.844625267025591,-0.833202855788674,-0.865800002269466,-0.811642266896218,-0.81800832842746,-0.825828696531644,-0.723858966593947,-0.726216532871902,-0.871798870909224,-0.679126496317298,-0.804175445686643,-0.125048949369344,-0.15472035263932,0.0296714032699754
"252","a12","pretest",-0.0427117827746284,-0.610659307291459,-0.623237233948977,-0.651254848191753,-0.549427454634238,-0.585750941843256,-0.596296546688109,-0.614272738774479,-0.616617305134576,-0.653065670378503,-0.476969206646338,-0.631689559285658,-0.15472035263932,-0.15472035263932,0
"253","a13","b01",-0.537033438636649,-0.522064619442111,-0.367852511381393,-0.134865960230178,-0.539651594930545,-0.526595825864256,-0.523259720672358,-0.232492599499717,-0.237089265051146,-0.461239650214223,-0.529721039909184,-0.286707997275331,0.243013042633853,0.423053756389667,-0.180040713755815
"254","a13","b02",-0.814329853618944,-0.796234552322748,-0.227948045261879,-0.280644250689404,-0.818927989224989,-0.802214182511155,-0.806677939596574,-0.257779978822287,-0.260962163170159,-0.603345609955718,-0.807676903454882,-0.326136009579889,0.481540893874993,0.423053756389667,0.0584871374853252
"255","a13","b03",-0.809773895336249,-0.777531364166161,-0.280087409399532,-0.231924174682103,-0.805382059317457,-0.778790963006103,-0.786905592523043,-0.167420207302823,-0.169001485152559,-0.549153524676433,-0.791676774869803,-0.27951736024269,0.512159414627113,0.423053756389667,0.0891056582374454
"256","a13","b04",-0.90316188480078,-0.870011023201837,-0.0508278002763601,-0.340712330117744,-0.903554844433515,-0.875424155830847,-0.884258376578758,-0.222081429472775,-0.226117876084534,-0.650010802409651,-0.887282056969148,-0.297950047672213,0.589332009296935,0.423053756389667,0.166278252907267
"257","a13","b05",-0.750662523421242,-0.720556452876268,-0.06393892938556,-0.273979497286239,-0.747130846382895,-0.726971159862412,-0.727020468773876,-0.255655509661486,-0.257204897892087,-0.564642813776141,-0.734468290263339,-0.283084329600302,0.451383960663036,0.423053756389667,0.0283302042733688
"258","a13","b06",-0.786001756193386,-0.751573199026979,-0.392799792031243,-0.322351362254148,-0.789873624459905,-0.762672853901567,-0.774170075555036,-0.275065809314665,-0.270089946834408,-0.62834657370957,-0.772858301827375,-0.377730696828807,0.395127604998568,0.423053756389667,-0.0279261513910997
"259","a13","b07",-0.734438519111822,-0.721286534475421,-0.40852205788872,-0.175266883112024,-0.748369170561274,-0.730185961735258,-0.721591464734638,-0.221345318088068,-0.21650975295594,-0.525145178307844,-0.731174330123683,-0.309357838070519,0.421816492053163,0.423053756389667,-0.00123726433650401
"260","a13","b08",-0.723994518223723,-0.697535618461252,-0.301661712070738,-0.264962253547892,-0.708748079603572,-0.688030413532639,-0.705123942226047,-0.356747976466456,-0.347741693795101,-0.594007308690877,-0.704686514409447,-0.373024188914213,0.331662325495234,0.423053756389667,-0.0913914308944334
"261","a13","b09",-0.841869128942212,-0.82402523573059,-0.220719569197149,-0.361942376171297,-0.846290360355121,-0.827603334055626,-0.832416101957776,-0.302579372443497,-0.304526019949897,-0.697699879396213,-0.834440832208265,-0.37749344343161,0.456947388776654,0.423053756389667,0.033893632386987
"262","a13","b10",-0.860429278538094,-0.838350148561839,-0.329348713776703,-0.439584534536304,-0.87544857831307,-0.849985409589811,-0.863926910596933,-0.417627305518389,-0.413400325720352,-0.733403557229842,-0.857628065119949,-0.466672887356318,0.390955177763631,0.423053756389667,-0.032098578626036
"263","a13","b11",-0.557046401188903,-0.537823822895079,-0.115432998559917,-0.234781173992778,-0.558933680434803,-0.537451816282346,-0.546461318018029,-0.116663183625386,-0.108494410696695,-0.562953557789002,-0.547543407763832,-0.227665064932756,0.319878342831076,0.423053756389667,-0.103175413558591
"264","a13","b12",-0.690848893316155,-0.681212105621531,-0.116741212010994,-0.129907525305667,-0.693620098028563,-0.67575119332856,-0.674487219616032,-0.0972121705765601,-0.0994149703458358,-0.44836994552579,-0.683183901982168,-0.17832916475297,0.504854737229199,0.423053756389667,0.0818009808395312
"265","a13","b13",-0.816795138158192,-0.778515140600422,-0.614223973619333,-0.438865741315996,-0.80912728541715,-0.780880982412151,-0.78764982340574,-0.48101931965959,-0.476922940284631,-0.76710958641534,-0.794593673998731,-0.555628312258978,0.238965361739753,0.423053756389667,-0.184088394649915
"266","a13","b14",-0.797868588856204,-0.78620766828026,-0.467794606852944,-0.4477427515867,-0.798408287579771,-0.777005532708372,-0.784646314759504,-0.464392192618172,-0.454946344750232,-0.764420754024532,-0.788827278436822,-0.519859329966516,0.268967948470306,0.423053756389667,-0.154085807919361
"267","a13","b15",-0.557011152166681,-0.540759539371674,-0.132394999695117,-0.201624362821555,-0.559788927177261,-0.545512678876913,-0.546895458300113,-0.0121958531376729,-0.00841994814916738,-0.541247061326422,-0.549993551178529,-0.179176445025987,0.370817106152542,0.423053756389667,-0.0522366502371259
"268","a13","b16",-1.09088372521855,-1.06935066378192,-0.640683047506762,-0.661388833174066,-1.09662147497108,-1.0606586956911,-1.06594911094072,-0.504968297465273,-0.498340420954978,-0.984218472602897,-1.07669273412067,-0.657919814340795,0.418772919779876,0.423053756389667,-0.00428083660979184
"269","a13","b17",-0.881172464017405,-0.850732009963139,-0.440200253998487,-0.517469909463981,-0.891634898510436,-0.854600875608931,-0.853297966278926,-0.469269276314642,-0.449975353949227,-0.862714071228241,-0.866287642875768,-0.547925772990916,0.318361869884852,0.423053756389667,-0.104691886504816
"270","a13","b18",-0.892924470706819,-0.861674199865277,-0.609308685607636,-0.314132711366505,-0.902188326515798,-0.871538867468602,-0.869916637534731,-0.456106777504176,-0.442653329792728,-0.643224306524767,-0.879648500418245,-0.493085162159162,0.386563338259083,0.423053756389667,-0.0364904181305846
"271","a13","b19",-0.777138687248038,-0.757666535024771,-0.220826473180477,-0.259542116421251,-0.77449509022966,-0.755393892896826,-0.759547286209837,-0.203338205074553,-0.200030455207213,-0.588527423823926,-0.764848298321827,-0.294452934741484,0.470395363580342,0.423053756389667,0.047341607190675
"272","a13","b20",-0.919477708337897,-0.883815290068704,-0.475502042558305,-0.327091846417721,-0.912398089275866,-0.8814803607286,-0.894963591665336,-0.311185874538142,-0.308367384949297,-0.627295773564355,-0.89842700801528,-0.409888584405564,0.488538423609716,0.423053756389667,0.0654846672200489
"273","a13","pretest",-0.601488796176435,-0.567019731075683,-0.0186704201013537,-0.396505209080283,-0.60052608150209,-0.564797253971723,-0.567949542930083,0.161459686610739,0.164175188441755,-0.696971869578534,-0.580356281131203,-0.157302524741535,0.423053756389667,0.423053756389667,0
"274","a14","b01",-0.83794139682696,-0.82655762086333,-1.21733854017264,-1.23947707797224,-0.83769664511556,-0.82785677482601,-0.8119835728105,-1.17837282345469,-1.22422186057793,-1.26891895324916,-0.828407202088472,-1.22566585108533,-0.397258648996861,-0.0928481968323792,-0.304410452164482
"275","a14","b02",-0.885600718378937,-0.877468513861466,-1.2170904606223,-1.23224518825007,-0.893129111344274,-0.894044637408675,-0.864799261545697,-1.17017714179145,-1.21238449834848,-1.25796614075076,-0.88300844850781,-1.21797268595261,-0.334964237444801,-0.0928481968323792,-0.242116040612422
"276","a14","b03",-0.769078702739395,-0.760679527803894,-1.20340212351768,-1.2133928171785,-0.775610697406903,-0.771993481070288,-0.750692494201871,-1.14486256864751,-1.19258138395435,-1.23770848200315,-0.76561098064447,-1.19838947506024,-0.432778494415767,-0.0928481968323792,-0.339930297583388
"277","a14","b04",-0.854832507640403,-0.828216512007519,-1.17992339905905,-1.2044343950588,-0.842279652170771,-0.841202277932769,-0.826482082645111,-1.12714940340443,-1.18616424952557,-1.23550549706955,-0.838602606479315,-1.18663538882348,-0.348032782344164,-0.0928481968323792,-0.255184585511784
"278","a14","b05",-0.834048103108243,-0.82197701853082,-1.17299185815143,-1.18274696770791,-0.835610391056585,-0.839979868332121,-0.812014823594432,-1.10838511980477,-1.16452891025998,-1.20706410482518,-0.82872604092444,-1.16714339214985,-0.338417351225412,-0.0928481968323792,-0.245569154393033
"279","a14","b06",-0.912784804158237,-0.90210517299759,-1.11387556618503,-1.14406800530366,-0.914854072375411,-0.910382807306833,-0.900808076450909,-1.05587548399202,-1.11523424371947,-1.16342734304768,-0.908186986657796,-1.11849612844957,-0.210309141791779,-0.0928481968323792,-0.1174609449594
"280","a14","b07",-0.892460018093627,-0.883400336949203,-1.21234184943673,-1.23716756836908,-0.899651058073747,-0.884168236646977,-0.867703847873705,-1.15720608777087,-1.19531216947736,-1.25533003552435,-0.885476699527452,-1.21147154211568,-0.325994842588228,-0.0928481968323792,-0.233146645755849
"281","a14","b08",-0.799040288049198,-0.794171130940462,-1.0915698494176,-1.11368078949958,-0.8110926033264,-0.802498242938324,-0.793280726064304,-1.02743857935621,-1.09095224015474,-1.13828442683994,-0.800016598263737,-1.09238517705361,-0.292368578789875,-0.0928481968323792,-0.199520381957495
"282","a14","b09",-0.809854348641691,-0.802245455542993,-1.05739581496607,-1.08532199513138,-0.823142230430066,-0.809276183253163,-0.797149688120317,-1.00544816550205,-1.06199446929054,-1.1187830801905,-0.808333581197646,-1.06578870501611,-0.257455123818462,-0.0928481968323792,-0.164606926986083
"283","a14","b10",-0.859084451038792,-0.842843607441625,-1.17062232156158,-1.19633067786824,-0.857400750260984,-0.840620359167804,-0.830224129889762,-1.11863669780767,-1.17673511966959,-1.21215578907758,-0.846034659559793,-1.17489612119693,-0.328861461637139,-0.0928481968323792,-0.23601326480476
"284","a14","b11",-0.868809574995179,-0.868518919425848,-1.07663006515283,-1.0828038528854,-0.890700592087344,-0.884466027356424,-0.864230109976831,-0.999759500903653,-1.07560354101875,-1.12866658197344,-0.875345044768325,-1.07269270838682,-0.197347663618491,-0.0928481968323792,-0.104499466786111
"285","a14","b12",-0.791945645235339,-0.772336909403354,-1.06005036597021,-1.079207580366,-0.797044708644578,-0.793948509584333,-0.77350636418418,-0.983844567443522,-1.07265438435031,-1.11288865252773,-0.785756427410357,-1.06172911013155,-0.275972682721197,-0.0928481968323792,-0.183124485888818
"286","a14","b13",-0.952858642037204,-0.941784045846393,-1.19891367927839,-1.2272963648602,-0.959820536057369,-0.953059130739022,-0.939636520243251,-1.12355787111652,-1.21103204907269,-1.26085111062849,-0.949431774984648,-1.20433021499126,-0.25489844000661,-0.0928481968323792,-0.162050243174231
"287","a14","b14",-0.924413847717221,-0.903956066972418,-1.16908677764913,-1.19684177469915,-0.927971273003258,-0.914161251866662,-0.89369191085614,-1.11278238223581,-1.17388950096332,-1.22624056316587,-0.91283887008314,-1.17576819974266,-0.262929329659517,-0.0928481968323792,-0.170081132827137
"288","a14","b15",-0.919673599310831,-0.898612778230976,-1.14932192396236,-1.18504691782658,-0.923928600667623,-0.910597137663066,-0.900276033362425,-1.07979089976104,-1.16685611845381,-1.21163947376518,-0.910617629846984,-1.1585310667538,-0.247913436906811,-0.0928481968323792,-0.155065240074432
"289","a14","b16",-0.970367117614746,-0.950282285239784,-1.25719875835907,-1.26793930709508,-0.967062501461939,-0.968463246121394,-0.945693483369741,-1.15641876108875,-1.2462326429176,-1.31009571829563,-0.960373726761521,-1.24757703755123,-0.287203310789704,-0.0928481968323792,-0.194355113957325
"290","a14","b17",-0.834909448204963,-0.817785954519334,-1.08011358799557,-1.11213495245188,-0.846346664924947,-0.824880137108726,-0.817354718989545,-0.990505046835611,-1.09758205174744,-1.13133095162102,-0.828255384749503,-1.0823333181303,-0.2540779333808,-0.0928481968323792,-0.161229736548421
"291","a14","b18",-0.968290918603283,-0.958355130320141,-1.1032498223978,-1.12934722257016,-0.982657770158094,-0.968243726141396,-0.961261301370259,-0.983907923953724,-1.09693148598753,-1.14021544623337,-0.967761769318634,-1.09073038022852,-0.122968610909885,-0.0928481968323792,-0.0301204140775058
"292","a14","b19",-1.11039665625012,-1.09642726543693,-1.31285298024396,-1.30517786176434,-1.1163342420075,-1.10345771026709,-1.08928267936676,-1.18406092236054,-1.28070352263567,-1.3435612916228,-1.10317971066568,-1.28527131572546,-0.182091605059783,-0.0928481968323792,-0.0892434082274042
"293","a14","b20",-0.878677160213128,-0.857748191345334,-1.1067565493768,-1.13263600715166,-0.889725574879583,-0.878278837816915,-0.867154144572749,-0.991872455131059,-1.11098743141887,-1.15920970902024,-0.874316781765542,-1.10029243041972,-0.225975648654182,-0.0928481968323792,-0.133127451821803
"294","a14","pretest",-0.800928476391944,-0.787503589010281,-0.88428367571907,-0.892390750689377,-0.804862206673583,-0.797270711236106,-0.779012569403323,-0.872730931658994,-0.878200702695536,-0.906212476114156,-0.793915510543047,-0.886763707375427,-0.0928481968323792,-0.0928481968323792,0
"295","a15","b01",-0.350458501246976,-0.333333333661532,-0.474500259988302,-0.732051698703778,-0.371835574014289,-0.353310630104472,-0.320118244343033,-0.732103205984454,-0.74166583453438,-0.725726303900216,-0.34581125667406,-0.681209460622226,-0.335398203948166,-0.386756366347633,0.051358162399467
"296","a15","b02",-0.296288564799509,-0.269158689451806,-0.410926131594872,-0.673383945411456,-0.319506986217309,-0.293216971869104,-0.371724670264243,-0.669570333312176,-0.678235413132661,-0.682117958612929,-0.309979176520394,-0.622846756412819,-0.312867579892425,-0.386756366347633,0.0738887864552079
"297","a15","b03",-0.761271133832557,-0.724298041842753,-0.774878050068913,-0.890430261606659,-0.781859825333928,-0.737569930385696,-0.713590171643765,-0.876185949906294,-0.887159170597619,-0.880112789957849,-0.74371782060774,-0.861753244427467,-0.118035423819727,-0.386756366347633,0.268720942527905
"298","a15","b04",-0.540269774622851,-0.493504453086193,-0.583282840784781,-0.889459862670712,-0.565472030005899,-0.531675518276048,-0.619360820223434,-0.880133884572973,-0.895137023736246,-0.888078363567628,-0.550056519242885,-0.827218395066468,-0.277161875823583,-0.386756366347633,0.109594490524049
"299","a15","b05",-0.602405529947759,-0.564611793151219,-0.656914175312143,-0.796295153424576,-0.631533211546852,-0.593490734926294,-0.693075767739655,-0.799432658231527,-0.802149863416511,-0.798335852211859,-0.617023407462356,-0.770625540519323,-0.153602133056967,-0.386756366347633,0.233154233290665
"300","a15","b06",-0.58137782521835,-0.547712524156363,-0.615240297426021,-0.837667795712502,-0.608076127845451,-0.584276945431191,-0.661336402634921,-0.831494075396356,-0.838684540965896,-0.843672831195993,-0.596555965057255,-0.793351908139354,-0.196795943082098,-0.386756366347633,0.189960423265534
"301","a15","b07",-0.623091674599717,-0.586331712008602,-0.64207137896546,-0.790273076028861,-0.655247829470557,-0.621169454198593,-0.683304308396232,-0.79137650124829,-0.804581840744498,-0.79323413789703,-0.63382899573474,-0.764307386976828,-0.130478391242088,-0.386756366347633,0.256277975105545
"302","a15","b08",-0.497445135615839,-0.471167128846234,-0.548313156590029,-0.630300656916617,-0.517901449338227,-0.494261500416449,-0.622770413697675,-0.637598525230177,-0.649840479164316,-0.632762096722872,-0.520709125582885,-0.619762982924802,-0.0990538573419172,-0.386756366347633,0.287702509005715
"303","a15","b09",-0.440732263673998,-0.422986496987967,-0.544176953455183,-0.745075735347151,-0.46651715216708,-0.437167414309574,-0.578737887053744,-0.745521593801108,-0.75199115122604,-0.744664996440308,-0.469228242838473,-0.706286086053958,-0.237057843215485,-0.386756366347633,0.149698523132148
"304","a15","b10",-0.816904296403371,-0.77655995977466,-0.912491646085867,-1.06827691819743,-0.852506114620535,-0.802742045231507,-0.849457546481253,-1.06524811845561,-1.07667801794137,-1.07344128705147,-0.819633992502265,-1.03922719754635,-0.219593205044083,-0.386756366347633,0.16716316130355
"305","a15","b11",-0.608086486503148,-0.565964876470614,-0.685241380220117,-0.99493623038753,-0.637738261480493,-0.60008084893834,-0.727301399419873,-0.982881949942792,-0.995096050005534,-0.987449802513804,-0.627834374562494,-0.929121082613955,-0.301286708051462,-0.386756366347633,0.0854696582961707
"306","a15","b12",-0.628875188655688,-0.596695188823234,-0.654856144878421,-0.895366644167278,-0.658449748910632,-0.633401779435516,-0.752093143769123,-0.892310788229254,-0.895562365080964,-0.898961938812238,-0.653903009918839,-0.847411576233631,-0.193508566314792,-0.386756366347633,0.19324780003284
"307","a15","b13",-0.391796454343259,-0.345570291783675,-0.49924037578589,-0.847711254440852,-0.426100945555437,-0.398375333592612,-0.575501222803501,-0.834477131215726,-0.849970858501327,-0.833493302216138,-0.427468849615697,-0.772978584431986,-0.345509734816289,-0.386756366347633,0.0412466315313431
"308","a15","b14",-0.628148455337263,-0.57956590065241,-0.646023808797144,-0.938484093079243,-0.662972577487618,-0.62277528320522,-0.696748475052823,-0.924488470718638,-0.931637381160398,-0.920934218165432,-0.638042138347067,-0.872313594384171,-0.234271456037105,-0.386756366347633,0.152484910310528
"309","a15","b15",-0.886601515166235,-0.861923621625535,-0.966621875256664,-1.11279891912742,-0.92362709179326,-0.889739037893594,-0.875506721957416,-1.11238936410179,-1.11239701375143,-1.10985882748408,-0.887479597687208,-1.08281319994428,-0.195333602257069,-0.386756366347633,0.191422764090564
"310","a15","b16",-0.43809932898347,-0.402747122747743,-0.594885964911398,-1.02384632274861,-0.463939422670574,-0.445232815113098,-0.576582206157843,-1.00672250686505,-1.03155376941119,-1.00027101369451,-0.465320179134546,-0.931455915526154,-0.466135736391608,-0.386756366347633,-0.0793793700439754
"311","a15","b17",-1.01672386964863,-0.985990130598068,-1.00717981115466,-1.15580706553969,-1.07005653091675,-1.00861121961482,-0.940988379466476,-1.1573961591416,-1.16519485364408,-1.16284915513224,-1.00447402604895,-1.12968540892245,-0.125211382873504,-0.386756366347633,0.261544983474128
"312","a15","b18",-0.944032225003124,-0.878610486138998,-0.850641194707806,-0.991665061181595,-0.999179279435548,-0.93041560723345,-0.854701667926614,-0.994884159940387,-0.994092343614048,-0.998466412158711,-0.921387853147547,-0.965949834320509,-0.0445619811729625,-0.386756366347633,0.34219438517467
"313","a15","b19",-0.486807927925538,-0.419985890711337,-0.471857216091349,-0.845967478708237,-0.504221187905148,-0.47823157842408,-0.563054512568617,-0.872396124974682,-0.868467011288665,-0.870672361950108,-0.490460219506944,-0.785872038602608,-0.295411819095664,-0.386756366347633,0.0913445472519683
"314","a15","b20",-0.629645942412054,-0.56866359645698,-0.626111998261661,-0.920356965595448,-0.664500152716204,-0.625222419697354,-0.637004448535274,-0.902787466223283,-0.93177176145366,-0.903094998495615,-0.625007311963573,-0.856824638005933,-0.23181732604236,-0.386756366347633,0.154939040305272
"315","a15","pretest",-0.656651200948756,-0.610930169945763,-0.731724930621434,-1.0686783195539,-0.683323904761666,-0.645700327680859,-0.514355846363106,-1.07646243552814,-1.08955699200532,-1.07832060372951,-0.62219228994003,-1.00894865628766,-0.386756366347633,-0.386756366347633,0
"316","a16","b01",-0.63800192757555,-1.13548913600918,-0.848478613726514,-1.12045713458039,-1.27043585437444,-1.27556209079981,-1.0826958900291,-1.12450851787078,-1.11396780225519,-0.960613427137084,-1.08043697975762,-1.03360509911399,0.046831880643627,-0.641833084522038,0.688664965165665
"317","a16","b02",-0.741813052444677,-1.17224474678898,-0.849470553764233,-1.15288757944263,-1.27835334834136,-1.27930841397707,-1.11069279054939,-1.16957657900787,-1.15161057206963,-1.03556019448954,-1.1164824704203,-1.07182109575478,0.0446613746655153,-0.641833084522038,0.686494459187553
"318","a16","b03",-0.74732769212449,-1.02435919520608,-0.777514720936653,-1.02163457255441,-1.26812786129022,-1.26444439641265,-1.03480887970637,-1.02699593336948,-1.02455990083139,-0.960988754410057,-1.06781360494796,-0.962338776420396,0.105474828527565,-0.641833084522038,0.747307913049603
"319","a16","b04",-0.713894018281716,-1.05143070385042,-0.71911381348973,-1.07512986315588,-1.22683071552578,-1.22120137192847,-1.06167623381663,-1.08243764981933,-1.06725143637171,-0.869756273784377,-1.05500660868061,-0.962737807324207,0.0922688013563986,-0.641833084522038,0.734101885878437
"320","a16","b05",-0.784350070147488,-1.09142696579151,-0.756366922189235,-1.06184931589988,-1.29335499817878,-1.29301444041151,-1.07461021226985,-1.06652913631388,-1.06593068307482,-0.960291150344162,-1.10735133735983,-0.982193441564396,0.125157895795434,-0.641833084522038,0.766990980317472
"321","a16","b06",-0.913421992451439,-1.11454749878949,-0.897987796703158,-1.22241946394482,-1.2799932152921,-1.28039965343082,-1.1063633751778,-1.22259292016139,-1.20367266687816,-1.03049830138857,-1.13894514702833,-1.11543422981522,0.02351091721311,-0.641833084522038,0.665344001735148
"322","a16","b07",-0.997272622959125,-1.15112650683826,-0.952212590761068,-1.18909601551587,-1.39400736267326,-1.39711267825106,-1.13706211513809,-1.19677475996886,-1.18255974712671,-1.23053017789511,-1.21531625717196,-1.15023465825352,0.065081598918435,-0.641833084522038,0.706914683440473
"323","a16","b08",-1.05238863729506,-1.17790432982442,-0.958731877964093,-1.14211990698218,-1.5447112566008,-1.53419479415925,-1.3432844214134,-1.13461941690279,-1.12935236515353,-1.19097924716426,-1.33049668785859,-1.11116056283337,0.219336125025216,-0.641833084522038,0.861169209547255
"324","a16","b09",-1.12978667976799,-1.07368472872086,-0.910390635090417,-1.14882463976022,-1.3657059821453,-1.37007548890107,-1.12408502128662,-1.14778257862525,-1.14505112604063,-1.15763294159305,-1.21266758016437,-1.10193638422191,0.110731195942452,-0.641833084522038,0.752564280464491
"325","a16","b10",-1.08110267034952,-1.15148819065076,-1.01884610372093,-1.22227380479297,-1.34362575716551,-1.33507793637978,-1.01464160077284,-1.22117732937506,-1.22869507243472,-1.16969800401227,-1.18518723106368,-1.17213806286719,0.013049168196489,-0.641833084522038,0.654882252718527
"326","a16","b11",-1.2606397150389,-1.22532301779107,-1.04228452168395,-1.24128266907077,-1.52563446338953,-1.52441027718203,-1.26007040886221,-1.24574911786717,-1.2286839370919,-1.17215869404088,-1.35921557645275,-1.18603178795093,0.173183788501812,-0.641833084522038,0.81501687302385
"327","a16","b12",-1.06536172912413,-1.27689275776576,-1.01916409257726,-1.0809090712849,-1.47750532503534,-1.48598323018015,-1.25454318134136,-1.08784823300784,-1.07687340314886,-1.08793977110418,-1.31205724468935,-1.07054691422461,0.241510330464737,-0.641833084522038,0.883343414986776
"328","a16","b13",-0.940977393780412,-1.06401306984276,-0.871465871898495,-1.17122162114528,-1.42077008345607,-1.41656453648171,-1.07133517381646,-1.14641200127492,-1.15928448701537,-1.15340158304038,-1.18273205147548,-1.10035711287489,0.0823749386005947,-0.641833084522038,0.724208023122633
"329","a16","b14",-1.05378241972345,-1.08211704966065,-0.821186530551499,-1.14429139816116,-1.42637852399715,-1.44691210711049,-1.06669643906279,-1.13680688965451,-1.13620030765949,-1.05027767769679,-1.21517730791091,-1.05775256074469,0.157424747166218,-0.641833084522038,0.799257831688256
"330","a16","b15",-1.08643366049364,-1.22385393524945,-1.10897521101235,-1.21938576620807,-1.4952610118566,-1.49878945791832,-1.15492967125017,-1.2043943690113,-1.19797947251938,-1.11651348481489,-1.29185354735363,-1.1694496607132,0.122403886640437,-0.641833084522038,0.764236971162475
"331","a16","b16",-1.19789294795436,-1.20211010934531,-1.01622204586243,-1.1795084169789,-1.46473793303941,-1.44603426387118,-1.23530021877969,-1.17249109753626,-1.16935372099971,-1.20487251887731,-1.30921509459799,-1.14848956005092,0.160725534547065,-0.641833084522038,0.802558619069103
"332","a16","b17",-1.04029181440767,-1.14372950602753,-1.06141929957883,-1.18927036346539,-1.47433775536379,-1.45911419551958,-1.09038094817129,-1.20934054842866,-1.18979601163121,-1.16809709613543,-1.24157084389797,-1.1635846638479,0.0779861800500674,-0.641833084522038,0.719819264572106
"333","a16","b18",-1.07750866514824,-1.24252414240026,-0.951248677269,-1.13080483756048,-1.52800505780088,-1.52818114964282,-1.19303003046296,-1.14319329764021,-1.13860934548636,-1.07930255562572,-1.31384980909103,-1.08863174271635,0.225218066374677,-0.641833084522038,0.867051150896716
"334","a16","b19",-1.05559095118176,-1.25741666047938,-1.09780886047333,-1.1571825723623,-1.44132508880627,-1.43613848040024,-1.21984131865329,-1.14748184559282,-1.1495581499855,-1.13911150304912,-1.28206249990419,-1.13822858629261,0.143833913611575,-0.641833084522038,0.785666998133614
"335","a16","b20",-1.03125348067769,-1.10781460182731,-0.957931757049737,-1.30325322192008,-1.41149250173942,-1.40524979263928,-1.15495434968705,-1.28299729464635,-1.29670164374801,-1.25450245854906,-1.22215294531415,-1.21907727518265,0.00307567013150334,-0.641833084522038,0.644908754653541
"336","a16","pretest",0.781072446070489,-0.41527357474407,-1.03256764460138,-1.47866115304381,-1.1681945043129,-1.18148062755569,-1.45880781692945,-1.47311296525419,-1.46895442020185,-1.19855331698058,-0.688536815494323,-1.33036990001636,-0.641833084522038,-0.641833084522038,0
"337","a17","b01",-0.573818460192045,-0.637052646399781,-0.867293424118208,-0.565736656113746,-0.525641169185932,-0.572607422657443,-0.518768736819979,-0.762278404072333,-0.767396903941971,-0.760622249423906,-0.565577687051036,-0.744665527534033,-0.179087840482997,-0.0977830973314076,-0.0813047431515891
"338","a17","b02",-0.74432448804333,-0.72408539753204,-0.895053558432803,-0.596888713794845,-0.689982153204737,-0.726755464433693,-0.59790715381949,-0.756853664508182,-0.766932418519315,-0.767933546147468,-0.696610931406658,-0.756732380280522,-0.0601214488738644,-0.0977830973314076,0.0376616484575432
"339","a17","b03",-0.607881299427462,-0.615851326185667,-0.898295166078841,-0.785256105222644,-0.563444681721351,-0.606420880394333,-0.506243503333607,-0.855130323159026,-0.856863935721394,-0.858810888041412,-0.579968338212484,-0.850871283644664,-0.27090294543218,-0.0977830973314076,-0.173119848100772
"340","a17","b04",-0.564442619196744,-0.643822364098691,-0.888217653291441,-0.723355726058647,-0.495360288532388,-0.562615796620381,-0.516868438439107,-0.807982143927915,-0.816878981692798,-0.814029375153211,-0.556621901377462,-0.810092776024802,-0.25347087464734,-0.0977830973314076,-0.155687777315933
"341","a17","b05",-0.586581019761026,-0.682521602073328,-0.97359741411814,-0.691660418222711,-0.58163255009259,-0.58053633826723,-0.565965619145822,-0.823808490685319,-0.831669149084785,-0.838887286673606,-0.599447425867999,-0.831924551756912,-0.232477125888912,-0.0977830973314076,-0.134694028557505
"342","a17","b06",-0.658335311501481,-0.805648841219308,-1.0310033722017,-0.649821198412714,-0.565729717612888,-0.648716907877884,-0.680434518123283,-0.920032713200289,-0.92216585968832,-0.926055134492717,-0.671773059266969,-0.889815655599148,-0.21804259633218,-0.0977830973314076,-0.120259499000772
"343","a17","b07",-0.588820476905087,-0.678519738017912,-0.994707963829309,-0.641752557245622,-0.545649406628675,-0.592754331266898,-0.552054523506505,-0.909657466010143,-0.914082777340585,-0.910014651885153,-0.591559695265015,-0.874043083262162,-0.282483387997147,-0.0977830973314076,-0.184700290665739
"344","a17","b08",-0.647375184418376,-0.741178635122178,-1.01394881689654,-0.696987290645186,-0.636462906105711,-0.637260862282235,-0.603443757831139,-0.860612251640141,-0.860900382560295,-0.853731991051813,-0.653144269151928,-0.857236146558795,-0.204091877406867,-0.0977830973314076,-0.106308780075459
"345","a17","b09",-0.652930911836002,-0.653595436870226,-0.914028966205067,-0.714668355988977,-0.639469741099293,-0.653211183348124,-0.520347094094248,-0.863784456447035,-0.870578733474106,-0.86270773658044,-0.623910873449579,-0.845153649739125,-0.221242776289546,-0.0977830973314076,-0.123459678958139
"346","a17","b10",-0.719490890577923,-0.794754927083807,-1.01835007349852,-0.726286398565345,-0.658559872948288,-0.71849564384461,-0.658283131061969,-0.869974461061596,-0.857045984980262,-0.866715360557157,-0.70991689310332,-0.867674455732577,-0.157757562629257,-0.0977830973314076,-0.0599744652978493
"347","a17","b11",-0.764567091421226,-0.672707619850482,-0.943073459405635,-1.00499550167156,-0.773602180605822,-0.751182368596033,-0.564960721918101,-0.814596825614529,-0.819130645778223,-0.818081351879955,-0.705403996478333,-0.87997555686998,-0.174571560391647,-0.0977830973314076,-0.0767884630602397
"348","a17","b12",-0.706008953556294,-0.683109965812354,-0.969480339052499,-0.855934783272617,-0.755243588470184,-0.697055720713135,-0.53746439856852,-0.82619856908512,-0.835357901274802,-0.830156367861788,-0.675776525424097,-0.863425592109365,-0.187649066685268,-0.0977830973314076,-0.0898659693538605
"349","a17","b13",-0.684891600764698,-0.843010473558379,-1.11688062946598,-0.705045555839211,-0.560046305211581,-0.681620796665527,-0.738099732337278,-0.928321738785888,-0.929988878080538,-0.931016278193701,-0.701533781707493,-0.922250616073063,-0.220716834365571,-0.0977830973314076,-0.122933737034163
"350","a17","b14",-0.722064295887103,-0.736446078854938,-0.967686755948728,-0.870515726738145,-0.638102205156108,-0.719619676366668,-0.616352842061972,-0.866978710971402,-0.883136052890921,-0.879875411343307,-0.686517019665358,-0.8936385315785,-0.207121511913143,-0.0977830973314076,-0.109338414581735
"351","a17","b15",-0.642198048034397,-0.644323502459197,-0.957065184110825,-0.865652726818114,-0.596954588686369,-0.628720188361015,-0.541930928687957,-0.845158651714819,-0.845828637241301,-0.85618366925806,-0.610825451245787,-0.873977773828624,-0.263152322582837,-0.0977830973314076,-0.165369225251429
"352","a17","b16",-0.783358415599308,-0.785393411798523,-0.956700075148125,-0.865625754709473,-0.761993452152753,-0.778102917631976,-0.649739796342387,-0.817210108703609,-0.81525524125274,-0.821522689489013,-0.751717598704989,-0.855262773860592,-0.103545175155603,-0.0977830973314076,-0.00576207782419502
"353","a17","b17",-0.622673962460596,-0.625861641716047,-0.895701073471207,-0.802826951853376,-0.596550549577034,-0.607757616246384,-0.520085078227075,-0.753436651514998,-0.758169111755399,-0.763153487899261,-0.594585769645427,-0.794657455298848,-0.200071685653421,-0.0977830973314076,-0.102288588322013
"354","a17","b18",-0.686057196412266,-0.712831960641474,-0.992438808149809,-0.842163228582289,-0.617667967711891,-0.668233319814636,-0.626900355706319,-0.877627584542124,-0.868225513139877,-0.884449644396616,-0.662338160057317,-0.892980955762143,-0.230642795704826,-0.0977830973314076,-0.132859698373418
"355","a17","b19",-0.888303315402677,-0.791429641553932,-0.980227871560987,-0.995361091940291,-0.791988157153536,-0.877131877950504,-0.669136691671728,-0.906117326046011,-0.91155662064828,-0.903299746546765,-0.803597936746476,-0.939312531348467,-0.135714594601991,-0.0977830973314076,-0.0379314972705836
"356","a17","b20",-0.671179081222954,-0.643186147071153,-0.840318566229483,-0.707668153688677,-0.615321613006484,-0.668147529583687,-0.508287999845761,-0.690973913870657,-0.695319696615586,-0.700756977442933,-0.621224474146008,-0.727007461569467,-0.105782987423459,-0.0977830973314076,-0.00799989009205171
"357","a17","pretest",-1.25244896077182,-1.02413915806824,-1.16852123568608,-1.56291522798671,-1.35679073594184,-1.24447446830123,-0.840522388399559,-1.15314310223038,-1.16574062138715,-1.15697101084941,-1.14367514229654,-1.24145823962795,-0.0977830973314076,-0.0977830973314076,0
"358","a18","b01",0.589506738949583,-0.0189718148080028,-0.715222785590053,-1.57700039718976,-0.117590710533079,-0.540907042944475,-0.543501668559524,-0.99222434020773,-1.57556056912446,-1.59662546706785,-0.126292899579099,-1.29132671183597,-1.16503381225687,-1.10772635192877,-0.0573074603281061
"359","a18","b02",0.505512787987795,-0.335841096126412,-0.886485804946825,-1.66548617247573,-0.190254267172755,-0.550407371790557,-0.547696119463116,-1.03081521520003,-1.64796941420644,-1.68961278331481,-0.223737213313009,-1.38407387802877,-1.16033666471576,-1.10772635192877,-0.0526103127869917
"360","a18","b03",0.466458471571878,-0.39602194985543,-1.04055314454917,-1.75242020359612,-0.262740356503811,-0.515075980559278,-0.514960336532229,-1.01548941760635,-1.72110970727974,-1.77271493845833,-0.244468030375774,-1.46045748229794,-1.21598945192217,-1.10772635192877,-0.1082630999934
"361","a18","b04",0.660440118307033,-0.203237780701381,-0.889201023888343,-1.78441195337494,-0.0620372466540621,-0.457662303885761,-0.453086155633766,-0.936166744321088,-1.74558380360058,-1.79015965647973,-0.103116673713587,-1.42910463633294,-1.32598796261935,-1.10772635192877,-0.218261610690581
"362","a18","b05",0.481023519698628,-0.392115150316896,-1.01121012258188,-1.8374393293005,-0.0859300881524528,-0.365142648212405,-0.368674184066362,-0.849892542667358,-1.80928658502718,-1.84481361680386,-0.146167710209897,-1.47052843927616,-1.32436072906626,-1.10772635192877,-0.216634377137492
"363","a18","b06",0.558837632249056,-0.413637501375213,-1.00799043770967,-1.86948351689096,-0.17770742375561,-0.549341702701964,-0.559032622726414,-1.00886003520795,-1.84253940252097,-1.89506671047472,-0.228176323662029,-1.52478802056085,-1.29661169689882,-1.10772635192877,-0.188885344970056
"364","a18","b07",0.255257475166723,-0.482149075393302,-1.24831251269718,-1.82482877034749,-0.191891852974267,-0.455260946594291,-0.454018802821934,-0.99203849054,-1.81357610030258,-1.84428946331834,-0.265612640523414,-1.54460906744112,-1.2789964269177,-1.10772635192877,-0.171270074988936
"365","a18","b08",0.241216402791546,-0.479194809685378,-1.10497970041371,-1.91604871004521,-0.293307015148077,-0.5681760720443,-0.571546137417173,-1.05455908585204,-1.88958901603598,-1.92477012317412,-0.334201526300676,-1.57798932710421,-1.24378780080353,-1.10772635192877,-0.136061448874768
"366","a18","b09",0.338606367578307,-0.526454545125076,-1.20880842337907,-1.92351830753946,-0.205516107826672,-0.390477896539577,-0.383808258181701,-0.90691197161659,-1.89233716602689,-1.95714595976802,-0.233530088018944,-1.57774436566601,-1.34421427764706,-1.10772635192877,-0.236487925718296
"367","a18","b10",0.450214267843513,-0.507173100450077,-1.08820941760572,-1.83587656098305,-0.208251183423218,-0.464475163368462,-0.471356007140101,-0.992269657949962,-1.81879128252083,-1.84852073741423,-0.240208237307669,-1.51673353129476,-1.27652529398709,-1.10772635192877,-0.168798942058323
"368","a18","b11",0.375950746241994,-0.417025546249151,-1.07956853006981,-1.91379248715078,-0.108193043514011,-0.405392629480318,-0.408170821849967,-0.992242001267377,-1.86169285504936,-1.90817692631847,-0.19256625897029,-1.55109455997116,-1.35852830100087,-1.10772635192877,-0.250801949072102
"369","a18","b12",0.216723193562931,-0.518654963145218,-1.2158134169324,-1.93054626879207,-0.250750956006329,-0.456805257717254,-0.457958600534356,-0.999070852131927,-1.90944896777228,-1.95598759670847,-0.293489316768045,-1.60217342046743,-1.30868410369938,-1.10772635192877,-0.200957751770616
"370","a18","b13",0.204315349660953,-0.44764118003814,-1.19930531698152,-1.82489448473595,-0.171076571691779,-0.293666801706598,-0.288453135024279,-0.837351668918782,-1.78917359539255,-1.84621052938421,-0.199304467759969,-1.4993871190826,-1.30008265132263,-1.10772635192877,-0.192356299393867
"371","a18","b14",0.16453651286845,-0.52809450403406,-1.23570354984175,-1.85863538247003,-0.21805647614648,-0.369696622587474,-0.370048258246251,-0.94896505450983,-1.82583422590419,-1.85531217138246,-0.264271869629163,-1.54489007682165,-1.28061820719249,-1.10772635192877,-0.172891855263722
"372","a18","b15",0.0999090512427636,-0.501843447049099,-1.25935163204123,-1.90301616542416,-0.210206974517448,-0.400716747439355,-0.403234662971383,-1.01285423939891,-1.86094008664863,-1.91040326532435,-0.283218556146904,-1.58931307776745,-1.30609452162055,-1.10772635192877,-0.198368169691784
"373","a18","b16",0.248648185166723,-0.39047403598166,-1.01994119761478,-1.86130217555755,-0.123774450875967,-0.283757927558075,-0.293480020077685,-0.899195517502884,-1.83678301218347,-1.8719986520218,-0.168567649865333,-1.4978441109761,-1.32927646111077,-1.10772635192877,-0.221550109182
"374","a18","b17",0.444949889842193,-0.313839960676573,-0.975360370431905,-1.76610681628133,-0.030034231936673,-0.364358152028693,-0.370116978123237,-0.806733623157838,-1.74232885354197,-1.7871951284126,-0.126679886584597,-1.41554495836513,-1.28886507178053,-1.10772635192877,-0.181138719851764
"375","a18","b18",0.130953565342177,-0.508074848163568,-1.14267738089741,-1.86793798494473,-0.285392971378719,-0.463100777384604,-0.475728160416562,-1.02763342303682,-1.84411097086681,-1.90265448364161,-0.320268638400255,-1.55700284867747,-1.23673421027722,-1.10772635192877,-0.129007858348453
"376","a18","b19",0.109988541716272,-0.515073826305368,-1.24125262873658,-1.79583288897383,-0.190548636556185,-0.386228012136186,-0.394698508189299,-1.00477788846715,-1.76630294115156,-1.81904614100481,-0.275312088294153,-1.52544249766679,-1.25013040937263,-1.10772635192877,-0.142404057443866
"377","a18","b20",0.044645454247266,-0.463131826000248,-1.17628060759236,-1.8178500718549,-0.233970067974395,-0.363026653158949,-0.344995019112933,-0.988360754208149,-1.77736307431873,-1.83025031181583,-0.272095622399852,-1.51802096395799,-1.24592534155814,-1.10772635192877,-0.138198989629373
"378","a18","pretest",0.393206077884456,-0.309712529115994,-0.8744657996087,-1.38591062318354,0.0741100205115215,-0.160139341842607,-0.166848221299659,-0.674743334129516,-1.37054297507509,-1.40235302150927,-0.0338767987724566,-1.14160315070122,-1.10772635192877,-1.10772635192877,0
"379","a19","b01",-0.343932126112598,-0.813563115675273,-1.18787648520286,-1.11422398281659,-0.41911990726279,-0.552240825800174,-0.58966595452883,-0.845073040246408,-0.980276372819118,-0.788153692279212,-0.543704385875933,-0.983120714672838,-0.439416328796905,-0.142392146266951,-0.297024182529954
"380","a19","b02",-0.255248048595607,-0.791415388938228,-1.11736282223188,-1.13308087097583,-0.295952420158978,-0.516868606158358,-0.544683470174006,-0.920871234315043,-1.13242802395568,-0.728910670450622,-0.480833586805036,-1.00653072438581,-0.525697137580776,-0.142392146266951,-0.383304991313825
"381","a19","b03",-0.505487986411253,-0.81394455939427,-1.16062318884743,-1.17369173478022,-0.555539009596992,-0.671344608506115,-0.664641168979241,-0.881221788428797,-1.15312951406712,-0.98583549859618,-0.642191466577574,-1.07090034494395,-0.428708878366374,-0.142392146266951,-0.286316732099424
"382","a19","b04",-0.471782432313893,-0.840905603200746,-1.30499503122376,-1.2675818746881,-0.369871875470992,-0.491110570663696,-0.506374889246048,-1.00748391343243,-1.08693681612931,-0.878261261804526,-0.536009074179075,-1.10905177945563,-0.57304270527655,-0.142392146266951,-0.430650559009599
"383","a19","b05",-0.443587765548485,-0.822288969176267,-1.26168329497873,-1.25673857680405,-0.469389546291356,-0.588656141827604,-0.593469304334771,-0.974501691658754,-1.21004179959551,-0.991664286334019,-0.583478345435697,-1.13892592987421,-0.555447584438515,-0.142392146266951,-0.413055438171564
"384","a19","b06",-0.347273242708577,-0.776157055143643,-1.22574682913085,-1.18762452520483,-0.344229828800758,-0.54936611402129,-0.544594165187664,-1.004812924362,-1.15306959463343,-0.763989249127365,-0.512324081172386,-1.06704862449169,-0.554724543319306,-0.142392146266951,-0.412332397052355
"385","a19","b07",-0.565555629877948,-0.904278715025183,-1.33021219091718,-1.24470241674731,-0.486883585746386,-0.637966470706074,-0.648801229670953,-1.02392110885563,-1.25695602649108,-0.927976652905421,-0.648697126205309,-1.15675367918332,-0.508056552978015,-0.142392146266951,-0.365664406711065
"386","a19","b08",-0.617321092348258,-0.861391868739736,-1.32222908078242,-1.36379816204363,-0.608770014105315,-0.695663974886211,-0.707303677322007,-1.00305706885089,-1.3965734563586,-1.09095588491547,-0.698090125480305,-1.2353227305902,-0.537232605109896,-0.142392146266951,-0.394840458842945
"387","a19","b09",-0.333809582888557,-0.728990437892804,-1.27880331866648,-1.24442680574784,-0.349932278116547,-0.637630592353275,-0.640390541199014,-0.99493475219229,-1.33475738733324,-0.872399821169736,-0.538150686490039,-1.14506441702192,-0.606913730531878,-0.142392146266951,-0.464521584264927
"388","a19","b10",-0.456609126739249,-0.796724365854346,-1.4554447316686,-1.42995278578802,-0.458768648774846,-0.640586579290927,-0.627505541236721,-0.874946198427881,-1.37090082387094,-0.899195493146433,-0.596038852379218,-1.20608800658037,-0.610049154201157,-0.142392146266951,-0.467657007934206
"389","a19","b11",-0.458876117765937,-0.786459194699677,-1.26931827128508,-1.24344527845118,-0.385650015981835,-0.470391856091008,-0.473319491957285,-0.936507360358724,-1.27243169626052,-0.978986788660939,-0.514939335299148,-1.14013787900329,-0.62519854370414,-0.142392146266951,-0.482806397437189
"390","a19","b12",-0.506041621087108,-0.804327428200617,-1.31502753095626,-1.24671884647352,-0.38759665759235,-0.657015835159459,-0.668764044282849,-0.968793390344709,-1.2215239814281,-0.850085504807466,-0.604749117264477,-1.12042985080201,-0.515680733537534,-0.142392146266951,-0.373288587270584
"391","a19","b13",-0.456008302588592,-0.818982339082406,-1.21067063928243,-1.20558258609368,-0.461200328511606,-0.56056611300404,-0.559137097200047,-0.897331300402029,-1.21299666027338,-0.927721055194485,-0.571178836077338,-1.0908604482492,-0.519681612171862,-0.142392146266951,-0.377289465904911
"392","a19","b14",-0.307546654848985,-0.768476697411671,-1.36555549648228,-1.14922509811892,-0.3774621469365,-0.645327961107085,-0.652889652956527,-0.78344182369468,-1.14191221384272,-0.75109451172198,-0.550340622652154,-1.03824582877212,-0.487905206119962,-0.142392146266951,-0.345513059853011
"393","a19","b15",-0.565379482295334,-0.686612354930977,-1.08798173301589,-1.15690922392995,-0.494930393459691,-0.553035115859,-0.544584401108597,-0.453088106768239,-1.00630280130224,-1.03951091438203,-0.56890834953072,-0.948758555879672,-0.379850206348952,-0.142392146266951,-0.237458060082001
"394","a19","b16",-0.56090080117256,-0.839839279414053,-1.17616310380024,-1.29293266716997,-0.372429617362562,-0.616202132831475,-0.630259944119481,-0.636013026389411,-1.02108654251191,-1.09947696041053,-0.603926354980026,-1.04513446005641,-0.441208105076387,-0.142392146266951,-0.298815958809436
"395","a19","b17",-0.393185960538465,-0.675802465859932,-1.13345886342891,-1.15853149631809,-0.231879580212302,-0.470558276976359,-0.480910951626441,-0.764189324038473,-1.12554592796745,-0.916539809524724,-0.4504674470427,-1.01965308425553,-0.569185637212829,-0.142392146266951,-0.426793490945878
"396","a19","b18",-0.599904387742441,-0.751868874196225,-1.17696295576328,-1.23878719534133,-0.617179460762915,-0.617623044923193,-0.620638127198291,-0.861995896929276,-1.22639100112628,-1.08717739903196,-0.641442778964613,-1.11826288963843,-0.476820110673812,-0.142392146266951,-0.334427964406861
"397","a19","b19",-0.511663204118123,-0.807717996967026,-1.2647631085638,-1.20280694572677,-0.438860860958764,-0.54587448770526,-0.551775742693301,-0.90478199605217,-1.23053517960024,-1.05989249396805,-0.571178458488495,-1.1325559447822,-0.561377486293709,-0.142392146266951,-0.418985340026758
"398","a19","b20",-0.543005774034283,-0.818630743291958,-1.26810127352455,-1.2695246960219,-0.501604923176893,-0.662588212342454,-0.67274551093688,-0.858444299211076,-1.29581540079152,-1.08186898006289,-0.639715032756493,-1.15475092992239,-0.515035897165893,-0.142392146266951,-0.372643750898942
"399","a19","pretest",-0.859806217012573,-0.687420584740217,-0.884881385180817,-1.00988868937164,-0.966297965038611,-0.596131503105298,-0.503216593599709,-0.647325467877148,-0.857618538394698,-0.925119514006859,-0.722574572699282,-0.864966718966232,-0.142392146266951,-0.142392146266951,0
"400","a20","b01",-0.181672677609656,0.0225661243569317,-0.0397541254885134,-0.185783274320302,-0.192750502432491,-0.187850107346404,0.141926383752996,-0.249717245345017,-0.255092689968577,-0.192750182227576,-0.0795561558557247,-0.184619503469997,-0.105063347614272,-0.0513452503421269,-0.0537180972721454
"401","a20","b02",-0.253800064424512,0.0134538324806176,0.0109720577258997,-0.124784535926068,-0.27209954771895,-0.254219245854554,0.0898177533285074,-0.279088248354134,-0.27345006250221,-0.122906426157959,-0.135369454437778,-0.157851443042894,-0.022481988605116,-0.0513452503421269,0.0288632617370109
"402","a20","b03",-0.162740458079933,0.0428647447661811,0.0443770958211783,-0.0875289264345532,-0.175249966845166,-0.161523347910571,0.175008399472121,-0.247795177930265,-0.245384263923105,-0.0991095678348194,-0.0563281257194736,-0.127088168060313,-0.0707600423408391,-0.0513452503421269,-0.0194147919987121
